Source: Spectrum Viewer

Chart: Pulse Spectrum

Series: 
Wavelength (nm)	S (a.u.)
617.638	0.89243
617.773	0.89243
617.908	0.928287
618.043	0.906375
618.178	0.904382
618.313	0.922311
618.448	0.914343
618.583	0.890438
618.718	0.884462
618.853	0.924303
618.988	0.916335
619.123	0.908367
619.258	0.904382
619.394	0.912351
619.529	0.896414
619.664	0.898406
619.799	0.906375
619.934	0.920319
620.069	0.904382
620.204	0.954183
620.339	0.894422
620.474	0.88247
620.609	0.928287
620.744	0.912351
620.879	0.88247
621.014	0.910359
621.149	0.924303
621.284	0.920319
621.419	0.912351
621.554	0.920319
621.689	0.89243
621.825	0.932271
621.96	0.930279
622.095	0.896414
622.23	0.936255
622.365	0.922311
622.5	0.884462
622.635	0.922311
622.77	0.88247
622.905	0.888446
623.04	0.916335
623.175	0.900398
623.31	0.89243
623.445	0.916335
623.58	0.900398
623.715	0.89243
623.85	0.880478
623.985	0.912351
624.12	0.908367
624.255	0.894422
624.39	0.89243
624.525	0.910359
624.661	0.906375
624.796	0.90239
624.931	0.924303
625.066	0.906375
625.201	0.874502
625.336	0.870518
625.471	0.918327
625.606	0.906375
625.741	0.910359
625.876	0.900398
626.011	0.918327
626.146	0.896414
626.281	0.936255
626.416	0.906375
626.551	0.904382
626.686	0.908367
626.821	0.894422
626.956	0.908367
627.091	0.896414
627.226	0.906375
627.361	0.934263
627.496	0.940239
627.631	0.904382
627.766	0.89243
627.901	0.888446
628.036	0.894422
628.171	0.898406
628.307	0.914343
628.442	0.924303
628.577	0.88247
628.712	0.916335
628.847	0.888446
628.982	0.910359
629.117	0.896414
629.252	0.90239
629.387	0.906375
629.522	0.930279
629.657	0.904382
629.792	0.896414
629.927	0.906375
630.062	0.924303
630.197	0.914343
630.332	0.904382
630.467	0.914343
630.602	0.912351
630.737	0.914343
630.872	0.916335
631.007	0.914343
631.142	0.894422
631.277	0.890438
631.412	0.908367
631.547	0.926295
631.682	0.884462
631.817	0.894422
631.952	0.914343
632.087	0.890438
632.222	0.898406
632.357	0.886454
632.492	0.906375
632.627	0.924303
632.762	0.900398
632.897	0.896414
633.032	0.920319
633.167	0.886454
633.302	0.896414
633.437	0.886454
633.572	0.906375
633.707	0.878486
633.842	0.920319
633.978	0.894422
634.113	0.932271
634.248	0.876494
634.383	0.918327
634.518	0.912351
634.653	0.890438
634.788	0.918327
634.923	0.90239
635.058	0.904382
635.193	0.914343
635.328	0.888446
635.463	0.888446
635.598	0.910359
635.733	0.912351
635.868	0.914343
636.003	0.888446
636.138	0.894422
636.273	0.904382
636.408	0.926295
636.543	0.912351
636.678	0.914343
636.813	0.904382
636.948	0.900398
637.083	0.910359
637.218	0.90239
637.353	0.89243
637.488	0.916335
637.623	0.912351
637.758	0.920319
637.893	0.912351
638.028	0.904382
638.163	0.916335
638.298	0.904382
638.433	0.900398
638.568	0.886454
638.703	0.922311
638.838	0.898406
638.973	0.930279
639.108	0.886454
639.243	0.918327
639.378	0.900398
639.513	0.908367
639.648	0.908367
639.783	0.890438
639.918	0.900398
640.053	0.932271
640.188	0.912351
640.323	0.918327
640.458	0.878486
640.593	0.918327
640.728	0.876494
640.863	0.914343
640.998	0.930279
641.133	0.908367
641.268	0.904382
641.403	0.874502
641.538	0.922311
641.673	0.938247
641.808	0.918327
641.943	0.912351
642.078	0.87251
642.213	0.894422
642.348	0.888446
642.483	0.918327
642.618	0.914343
642.753	0.876494
642.888	0.928287
643.023	0.886454
643.158	0.914343
643.293	0.914343
643.428	0.916335
643.563	0.90239
643.698	0.920319
643.833	0.890438
643.968	0.916335
644.103	0.930279
644.237	0.916335
644.372	0.906375
644.507	0.880478
644.642	0.890438
644.777	0.904382
644.912	0.908367
645.047	0.924303
645.182	0.898406
645.317	0.910359
645.452	0.870518
645.587	0.90239
645.722	0.898406
645.857	0.89243
645.992	0.908367
646.127	0.910359
646.262	0.926295
646.397	0.910359
646.532	0.918327
646.667	0.920319
646.802	0.878486
646.937	0.936255
647.072	0.896414
647.207	0.912351
647.342	0.920319
647.477	0.906375
647.612	0.890438
647.747	0.878486
647.882	0.924303
648.017	0.920319
648.152	0.90239
648.287	0.89243
648.422	0.894422
648.557	0.89243
648.692	0.908367
648.827	0.888446
648.962	0.914343
649.097	0.918327
649.232	0.918327
649.367	0.886454
649.502	0.912351
649.637	0.918327
649.772	0.898406
649.906	0.898406
650.041	0.930279
650.176	0.898406
650.311	0.910359
650.446	0.896414
650.581	0.898406
650.716	0.912351
650.851	0.932271
650.986	0.87251
651.121	0.914343
651.256	0.90239
651.391	0.900398
651.526	0.88247
651.661	0.878486
651.796	0.884462
651.931	0.888446
652.066	0.906375
652.201	0.904382
652.336	0.928287
652.471	0.888446
652.606	0.930279
652.741	0.884462
652.876	0.922311
653.011	0.908367
653.146	0.88247
653.281	0.908367
653.415	0.90239
653.55	0.89243
653.685	0.890438
653.82	0.908367
653.955	0.908367
654.09	0.890438
654.225	0.890438
654.36	0.898406
654.495	0.904382
654.63	0.910359
654.765	0.89243
654.9	0.884462
655.035	0.914343
655.17	0.910359
655.305	0.900398
655.44	0.864542
655.575	0.912351
655.71	0.918327
655.845	0.910359
655.98	0.904382
656.115	0.894422
656.25	0.898406
656.384	0.928287
656.519	0.914343
656.654	0.890438
656.789	0.904382
656.924	0.878486
657.059	0.888446
657.194	0.918327
657.329	0.898406
657.464	0.916335
657.599	0.890438
657.734	0.932271
657.869	0.918327
658.004	0.900398
658.139	0.924303
658.274	0.89243
658.409	0.910359
658.544	0.912351
658.679	0.912351
658.813	0.906375
658.948	0.904382
659.083	0.904382
659.218	0.894422
659.353	0.912351
659.488	0.914343
659.623	0.896414
659.758	0.922311
659.893	0.89243
660.028	0.89243
660.163	0.890438
660.298	0.880478
660.433	0.906375
660.568	0.906375
660.703	0.878486
660.838	0.938247
660.972	0.906375
661.107	0.910359
661.242	0.88247
661.377	0.90239
661.512	0.898406
661.647	0.900398
661.782	0.894422
661.917	0.890438
662.052	0.896414
662.187	0.906375
662.322	0.924303
662.457	0.926295
662.592	0.922311
662.727	0.89243
662.862	0.916335
662.996	0.908367
663.131	0.918327
663.266	0.90239
663.401	0.918327
663.536	0.912351
663.671	0.906375
663.806	0.926295
663.941	0.896414
664.076	0.910359
664.211	0.89243
664.346	0.932271
664.481	0.898406
664.616	0.90239
664.75	0.898406
664.885	0.916335
665.02	0.880478
665.155	0.89243
665.29	0.90239
665.425	0.916335
665.56	0.90239
665.695	0.908367
665.83	0.888446
665.965	0.896414
666.1	0.900398
666.235	0.876494
666.37	0.884462
666.504	0.918327
666.639	0.896414
666.774	0.912351
666.909	0.888446
667.044	0.914343
667.179	0.926295
667.314	0.926295
667.449	0.896414
667.584	0.906375
667.719	0.920319
667.854	0.914343
667.989	0.894422
668.123	0.904382
668.258	0.904382
668.393	0.890438
668.528	0.890438
668.663	0.942231
668.798	0.924303
668.933	0.896414
669.068	0.888446
669.203	0.896414
669.338	0.904382
669.473	0.900398
669.607	0.910359
669.742	0.88247
669.877	0.89243
670.012	0.918327
670.147	0.914343
670.282	0.896414
670.417	0.910359
670.552	0.910359
670.687	0.878486
670.822	0.886454
670.957	0.908367
671.091	0.870518
671.226	0.914343
671.361	0.896414
671.496	0.880478
671.631	0.888446
671.766	0.894422
671.901	0.888446
672.036	0.894422
672.171	0.930279
672.306	0.922311
672.44	0.888446
672.575	0.898406
672.71	0.928287
672.845	0.898406
672.98	0.916335
673.115	0.888446
673.25	0.896414
673.385	0.904382
673.52	0.914343
673.655	0.916335
673.789	0.904382
673.924	0.884462
674.059	0.908367
674.194	0.912351
674.329	0.908367
674.464	0.922311
674.599	0.888446
674.734	0.926295
674.869	0.888446
675.003	0.888446
675.138	0.896414
675.273	0.906375
675.408	0.890438
675.543	0.890438
675.678	0.900398
675.813	0.906375
675.948	0.934263
676.083	0.906375
676.217	0.914343
676.352	0.930279
676.487	0.896414
676.622	0.87251
676.757	0.916335
676.892	0.946215
677.027	0.89243
677.162	0.904382
677.297	0.900398
677.431	0.916335
677.566	0.928287
677.701	0.904382
677.836	0.916335
677.971	0.914343
678.106	0.900398
678.241	0.896414
678.376	0.928287
678.511	0.928287
678.645	0.926295
678.78	0.908367
678.915	0.922311
679.05	0.90239
679.185	0.910359
679.32	0.900398
679.455	0.906375
679.59	0.896414
679.724	0.898406
679.859	0.894422
679.994	0.884462
680.129	0.910359
680.264	0.916335
680.399	0.89243
680.534	0.926295
680.669	0.90239
680.803	0.906375
680.938	0.898406
681.073	0.910359
681.208	0.896414
681.343	0.904382
681.478	0.914343
681.613	0.880478
681.748	0.908367
681.882	0.918327
682.017	0.918327
682.152	0.914343
682.287	0.888446
682.422	0.878486
682.557	0.890438
682.692	0.910359
682.827	0.890438
682.961	0.920319
683.096	0.894422
683.231	0.910359
683.366	0.888446
683.501	0.914343
683.636	0.932271
683.771	0.89243
683.906	0.906375
684.04	0.886454
684.175	0.900398
684.31	0.904382
684.445	0.918327
684.58	0.928287
684.715	0.912351
684.85	0.878486
684.984	0.928287
685.119	0.90239
685.254	0.88247
685.389	0.908367
685.524	0.894422
685.659	0.910359
685.794	0.888446
685.928	0.916335
686.063	0.912351
686.198	0.916335
686.333	0.924303
686.468	0.90239
686.603	0.904382
686.738	0.886454
686.872	0.88247
687.007	0.90239
687.142	0.888446
687.277	0.896414
687.412	0.924303
687.547	0.904382
687.682	0.894422
687.816	0.926295
687.951	0.898406
688.086	0.928287
688.221	0.910359
688.356	0.890438
688.491	0.90239
688.626	0.922311
688.76	0.900398
688.895	0.884462
689.03	0.888446
689.165	0.904382
689.3	0.890438
689.435	0.890438
689.57	0.906375
689.704	0.938247
689.839	0.912351
689.974	0.934263
690.109	0.896414
690.244	0.916335
690.379	0.924303
690.513	0.896414
690.648	0.906375
690.783	0.886454
690.918	0.916335
691.053	0.932271
691.188	0.926295
691.323	0.906375
691.457	0.908367
691.592	0.916335
691.727	0.914343
691.862	0.916335
691.997	0.916335
692.132	0.922311
692.266	0.884462
692.401	0.904382
692.536	0.906375
692.671	0.884462
692.806	0.916335
692.941	0.920319
693.075	0.868526
693.21	0.914343
693.345	0.920319
693.48	0.928287
693.615	0.888446
693.75	0.904382
693.885	0.912351
694.019	0.926295
694.154	0.918327
694.289	0.870518
694.424	0.896414
694.559	0.884462
694.694	0.914343
694.828	0.89243
694.963	0.906375
695.098	0.922311
695.233	0.884462
695.368	0.898406
695.503	0.926295
695.637	0.874502
695.772	0.918327
695.907	0.924303
696.042	0.904382
696.177	0.918327
696.312	0.916335
696.446	0.876494
696.581	0.906375
696.716	0.90239
696.851	0.906375
696.986	0.886454
697.12	0.884462
697.255	0.900398
697.39	0.906375
697.525	0.926295
697.66	0.89243
697.795	0.908367
697.929	0.920319
698.064	0.89243
698.199	0.914343
698.334	0.898406
698.469	0.914343
698.604	0.910359
698.738	0.910359
698.873	0.900398
699.008	0.904382
699.143	0.918327
699.278	0.938247
699.412	0.906375
699.547	0.912351
699.682	0.912351
699.817	0.870518
699.952	0.888446
700.087	0.894422
700.221	0.904382
700.356	0.900398
700.491	0.912351
700.626	0.932271
700.761	0.932271
700.895	0.908367
701.03	0.898406
701.165	0.898406
701.3	0.864542
701.435	0.90239
701.57	0.904382
701.704	0.928287
701.839	0.910359
701.974	0.90239
702.109	0.87251
702.244	0.88247
702.378	0.916335
702.513	0.894422
702.648	0.916335
702.783	0.928287
702.918	0.906375
703.052	0.898406
703.187	0.922311
703.322	0.874502
703.457	0.896414
703.592	0.90239
703.727	0.89243
703.861	0.924303
703.996	0.910359
704.131	0.89243
704.266	0.936255
704.401	0.904382
704.535	0.916335
704.67	0.890438
704.805	0.920319
704.94	0.896414
705.075	0.888446
705.209	0.884462
705.344	0.894422
705.479	0.90239
705.614	0.910359
705.749	0.890438
705.883	0.918327
706.018	0.890438
706.153	0.912351
706.288	0.890438
706.423	0.906375
706.557	0.876494
706.692	0.910359
706.827	0.920319
706.962	0.926295
707.097	0.90239
707.231	0.90239
707.366	0.898406
707.501	0.918327
707.636	0.870518
707.771	0.908367
707.905	0.894422
708.04	0.874502
708.175	0.894422
708.31	0.898406
708.445	0.898406
708.579	0.888446
708.714	0.918327
708.849	0.894422
708.984	0.908367
709.118	0.884462
709.253	0.884462
709.388	0.920319
709.523	0.896414
709.658	0.898406
709.792	0.896414
709.927	0.932271
710.062	0.89243
710.197	0.896414
710.332	0.89243
710.466	0.898406
710.601	0.918327
710.736	0.906375
710.871	0.886454
711.006	0.912351
711.14	0.904382
711.275	0.88247
711.41	0.912351
711.545	0.898406
711.679	0.900398
711.814	0.924303
711.949	0.908367
712.084	0.894422
712.219	0.910359
712.353	0.878486
712.488	0.910359
712.623	0.904382
712.758	0.912351
712.892	0.910359
713.027	0.910359
713.162	0.896414
713.297	0.908367
713.432	0.914343
713.566	0.910359
713.701	0.932271
713.836	0.920319
713.971	0.906375
714.105	0.930279
714.24	0.898406
714.375	0.920319
714.51	0.908367
714.645	0.884462
714.779	0.896414
714.914	0.926295
715.049	0.904382
715.184	0.900398
715.318	0.886454
715.453	0.906375
715.588	0.926295
715.723	0.904382
715.858	0.916335
715.992	0.918327
716.127	0.940239
716.262	0.904382
716.397	0.914343
716.531	0.918327
716.666	0.906375
716.801	0.938247
716.936	0.910359
717.07	0.88247
717.205	0.898406
717.34	0.932271
717.475	0.918327
717.61	0.898406
717.744	0.920319
717.879	0.898406
718.014	0.896414
718.149	0.906375
718.283	0.894422
718.418	0.930279
718.553	0.896414
718.688	0.894422
718.822	0.896414
718.957	0.910359
719.092	0.918327
719.227	0.908367
719.361	0.886454
719.496	0.908367
719.631	0.908367
719.766	0.920319
719.9	0.906375
720.035	0.912351
720.17	0.904382
720.305	0.912351
720.44	0.89243
720.574	0.904382
720.709	0.918327
720.844	0.916335
720.979	0.916335
721.113	0.904382
721.248	0.914343
721.383	0.884462
721.518	0.906375
721.652	0.884462
721.787	0.890438
721.922	0.88247
722.057	0.884462
722.191	0.922311
722.326	0.914343
722.461	0.912351
722.596	0.900398
722.73	0.904382
722.865	0.940239
723	0.874502
723.135	0.890438
723.269	0.926295
723.404	0.904382
723.539	0.918327
723.674	0.884462
723.808	0.904382
723.943	0.912351
724.078	0.898406
724.213	0.878486
724.347	0.89243
724.482	0.916335
724.617	0.926295
724.752	0.886454
724.886	0.932271
725.021	0.89243
725.156	0.894422
725.291	0.896414
725.425	0.922311
725.56	0.918327
725.695	0.906375
725.829	0.906375
725.964	0.890438
726.099	0.890438
726.234	0.938247
726.368	0.912351
726.503	0.88247
726.638	0.912351
726.773	0.912351
726.907	0.900398
727.042	0.89243
727.177	0.904382
727.312	0.898406
727.446	0.906375
727.581	0.910359
727.716	0.914343
727.851	0.926295
727.985	0.896414
728.12	0.90239
728.255	0.89243
728.389	0.88247
728.524	0.922311
728.659	0.90239
728.794	0.920319
728.928	0.876494
729.063	0.886454
729.198	0.906375
729.333	0.89243
729.467	0.922311
729.602	0.896414
729.737	0.886454
729.872	0.912351
730.006	0.898406
730.141	0.916335
730.276	0.89243
730.41	0.914343
730.545	0.908367
730.68	0.918327
730.815	0.90239
730.949	0.920319
731.084	0.878486
731.219	0.908367
731.354	0.904382
731.488	0.932271
731.623	0.920319
731.758	0.934263
731.892	0.89243
732.027	0.896414
732.162	0.886454
732.297	0.898406
732.431	0.914343
732.566	0.904382
732.701	0.898406
732.835	0.866534
732.97	0.89243
733.105	0.908367
733.24	0.922311
733.374	0.890438
733.509	0.912351
733.644	0.918327
733.779	0.89243
733.913	0.920319
734.048	0.894422
734.183	0.896414
734.317	0.884462
734.452	0.914343
734.587	0.88247
734.722	0.928287
734.856	0.876494
734.991	0.876494
735.126	0.908367
735.26	0.886454
735.395	0.904382
735.53	0.930279
735.665	0.898406
735.799	0.920319
735.934	0.916335
736.069	0.908367
736.203	0.906375
736.338	0.894422
736.473	0.898406
736.607	0.900398
736.742	0.912351
736.877	0.908367
737.012	0.900398
737.146	0.924303
737.281	0.898406
737.416	0.894422
737.55	0.926295
737.685	0.88247
737.82	0.910359
737.955	0.894422
738.089	0.920319
738.224	0.894422
738.359	0.886454
738.493	0.888446
738.628	0.936255
738.763	0.910359
738.897	0.906375
739.032	0.894422
739.167	0.920319
739.302	0.906375
739.436	0.880478
739.571	0.888446
739.706	0.916335
739.84	0.908367
739.975	0.88247
740.11	0.874502
740.244	0.894422
740.379	0.904382
740.514	0.924303
740.649	0.900398
740.783	0.910359
740.918	0.888446
741.053	0.904382
741.187	0.894422
741.322	0.904382
741.457	0.89243
741.591	0.914343
741.726	0.914343
741.861	0.918327
741.996	0.924303
742.13	0.904382
742.265	0.912351
742.4	0.868526
742.534	0.918327
742.669	0.898406
742.804	0.888446
742.938	0.904382
743.073	0.904382
743.208	0.914343
743.342	0.900398
743.477	0.870518
743.612	0.908367
743.747	0.908367
743.881	0.898406
744.016	0.884462
744.151	0.908367
744.285	0.922311
744.42	0.894422
744.555	0.918327
744.689	0.89243
744.824	0.912351
744.959	0.910359
745.093	0.906375
745.228	0.850598
745.363	0.898406
745.497	0.908367
745.632	0.916335
745.767	0.89243
745.901	0.904382
746.036	0.898406
746.171	0.912351
746.305	0.918327
746.44	0.890438
746.575	0.890438
746.71	0.916335
746.844	0.918327
746.979	0.906375
747.114	0.89243
747.248	0.898406
747.383	0.906375
747.518	0.886454
747.652	0.904382
747.787	0.916335
747.922	0.918327
748.056	0.910359
748.191	0.88247
748.326	0.890438
748.46	0.916335
748.595	0.914343
748.73	0.910359
748.864	0.89243
748.999	0.920319
749.134	0.928287
749.268	0.896414
749.403	0.876494
749.538	0.896414
749.672	0.898406
749.807	0.920319
749.942	0.920319
750.076	0.884462
750.211	0.910359
750.346	0.90239
750.48	0.898406
750.615	0.918327
750.75	0.908367
750.884	0.904382
751.019	0.896414
751.154	0.906375
751.288	0.888446
751.423	0.918327
751.558	0.90239
751.692	0.906375
751.827	0.914343
751.962	0.912351
752.096	0.900398
752.231	0.87251
752.366	0.914343
752.5	0.920319
752.635	0.920319
752.77	0.90239
752.904	0.906375
753.039	0.908367
753.174	0.908367
753.308	0.890438
753.443	0.898406
753.578	0.908367
753.712	0.944223
753.847	0.886454
753.982	0.894422
754.116	0.894422
754.251	0.914343
754.386	0.888446
754.52	0.896414
754.655	0.922311
754.79	0.908367
754.924	0.922311
755.059	0.90239
755.194	0.920319
755.328	0.90239
755.463	0.910359
755.597	0.926295
755.732	0.880478
755.867	0.888446
756.001	0.888446
756.136	0.88247
756.271	0.890438
756.405	0.916335
756.54	0.906375
756.675	0.88247
756.809	0.874502
756.944	0.898406
757.079	0.930279
757.213	0.922311
757.348	0.914343
757.483	0.900398
757.617	0.906375
757.752	0.906375
757.887	0.880478
758.021	0.916335
758.156	0.918327
758.29	0.886454
758.425	0.900398
758.56	0.910359
758.694	0.916335
758.829	0.898406
758.964	0.910359
759.098	0.896414
759.233	0.910359
759.368	0.900398
759.502	0.894422
759.637	0.910359
759.772	0.924303
759.906	0.926295
760.041	0.886454
760.175	0.898406
760.31	0.888446
760.445	0.904382
760.579	0.880478
760.714	0.924303
760.849	0.898406
760.983	0.914343
761.118	0.888446
761.253	0.900398
761.387	0.894422
761.522	0.89243
761.656	0.898406
761.791	0.906375
761.926	0.906375
762.06	0.932271
762.195	0.90239
762.33	0.904382
762.464	0.88247
762.599	0.928287
762.733	0.922311
762.868	0.890438
763.003	0.876494
763.137	0.900398
763.272	0.890438
763.407	0.918327
763.541	0.922311
763.676	0.890438
763.811	0.878486
763.945	0.910359
764.08	0.922311
764.214	0.904382
764.349	0.900398
764.484	0.924303
764.618	0.912351
764.753	0.914343
764.888	0.910359
765.022	0.896414
765.157	0.930279
765.291	0.900398
765.426	0.896414
765.561	0.920319
765.695	0.896414
765.83	0.916335
765.965	0.888446
766.099	0.908367
766.234	0.904382
766.368	0.884462
766.503	0.878486
766.638	0.914343
766.772	0.904382
766.907	0.90239
767.041	0.906375
767.176	0.906375
767.311	0.894422
767.445	0.908367
767.58	0.898406
767.715	0.912351
767.849	0.898406
767.984	0.890438
768.118	0.928287
768.253	0.916335
