Source: Spectrum Viewer

Chart: Pulse Spectrum

Series: 
Wavelength (nm)	S (a.u.)
617.638	0.0781142
617.773	0.0789745
617.908	0.0769098
618.043	0.0791466
618.178	0.0770819
618.313	0.0812113
618.448	0.0784584
618.583	0.0782863
618.718	0.0788025
618.853	0.0800069
618.988	0.0769098
619.123	0.0794907
619.258	0.0767378
619.394	0.0770819
619.529	0.0767378
619.664	0.0770819
619.799	0.0784584
619.934	0.0769098
620.069	0.0763937
620.204	0.0777701
620.339	0.0784584
620.474	0.0793187
620.609	0.0798348
620.744	0.0779422
620.879	0.0793187
621.014	0.077426
621.149	0.0767378
621.284	0.0770819
621.419	0.0786304
621.554	0.0763937
621.689	0.0789745
621.825	0.0786304
621.96	0.0753613
622.095	0.0779422
622.23	0.0791466
622.365	0.0793187
622.5	0.077254
622.635	0.0794907
622.77	0.0786304
622.905	0.0788025
623.04	0.0769098
623.175	0.0789745
623.31	0.0798348
623.445	0.0750172
623.58	0.0777701
623.715	0.0763937
623.85	0.0775981
623.985	0.0769098
624.12	0.0793187
624.255	0.0786304
624.39	0.0779422
624.525	0.0781142
624.661	0.0769098
624.796	0.0794907
624.931	0.077426
625.066	0.0781142
625.201	0.077254
625.336	0.0760496
625.471	0.0796628
625.606	0.0782863
625.741	0.0769098
625.876	0.0805231
626.011	0.0784584
626.146	0.0794907
626.281	0.0763937
626.416	0.0765657
626.551	0.0788025
626.686	0.0786304
626.821	0.0769098
626.956	0.0757054
627.091	0.0788025
627.226	0.0789745
627.361	0.0786304
627.496	0.0796628
627.631	0.0788025
627.766	0.0784584
627.901	0.0748451
628.036	0.077254
628.171	0.077254
628.307	0.080351
628.442	0.0794907
628.577	0.0758775
628.712	0.0793187
628.847	0.0770819
628.982	0.0775981
629.117	0.0762216
629.252	0.0789745
629.387	0.0762216
629.522	0.0791466
629.657	0.0767378
629.792	0.080351
629.927	0.077426
630.062	0.0789745
630.197	0.0770819
630.332	0.0775981
630.467	0.0786304
630.602	0.0791466
630.737	0.0791466
630.872	0.0757054
631.007	0.0779422
631.142	0.0789745
631.277	0.0758775
631.412	0.0800069
631.547	0.0762216
631.682	0.0775981
631.817	0.0786304
631.952	0.0786304
632.087	0.0798348
632.222	0.0767378
632.357	0.0760496
632.492	0.077426
632.627	0.0777701
632.762	0.0767378
632.897	0.0782863
633.032	0.0769098
633.167	0.077254
633.302	0.0762216
633.437	0.0788025
633.572	0.0786304
633.707	0.0760496
633.842	0.0805231
633.978	0.0758775
634.113	0.0775981
634.248	0.0791466
634.383	0.0794907
634.518	0.0762216
634.653	0.077254
634.788	0.0775981
634.923	0.0791466
635.058	0.0753613
635.193	0.0779422
635.328	0.0784584
635.463	0.0794907
635.598	0.0786304
635.733	0.0788025
635.868	0.0763937
636.003	0.0763937
636.138	0.0767378
636.273	0.0810392
636.408	0.077254
636.543	0.0789745
636.678	0.0786304
636.813	0.0755334
636.948	0.0757054
637.083	0.0789745
637.218	0.0786304
637.353	0.0812113
637.488	0.0770819
637.623	0.0770819
637.758	0.0781142
637.893	0.0770819
638.028	0.0775981
638.163	0.0796628
638.298	0.077254
638.433	0.077426
638.568	0.0770819
638.703	0.0781142
638.838	0.0793187
638.973	0.0760496
639.108	0.0782863
639.243	0.0779422
639.378	0.0779422
639.513	0.0757054
639.648	0.0784584
639.783	0.0767378
639.918	0.0775981
640.053	0.0793187
640.188	0.077254
640.323	0.0781142
640.458	0.0796628
640.593	0.0753613
640.728	0.0779422
640.863	0.077254
640.998	0.0760496
641.133	0.0779422
641.268	0.0779422
641.403	0.0784584
641.538	0.0770819
641.673	0.0770819
641.808	0.0784584
641.943	0.0791466
642.078	0.077254
642.213	0.0777701
642.348	0.0770819
642.483	0.0777701
642.618	0.0801789
642.753	0.0784584
642.888	0.077426
643.023	0.0779422
643.158	0.0757054
643.293	0.0755334
643.428	0.077254
643.563	0.0789745
643.698	0.0777701
643.833	0.0782863
643.968	0.0769098
644.103	0.077426
644.237	0.0760496
644.372	0.0796628
644.507	0.077426
644.642	0.0788025
644.777	0.0769098
644.912	0.0784584
645.047	0.0769098
645.182	0.0800069
645.317	0.0786304
645.452	0.077426
645.587	0.0791466
645.722	0.0769098
645.857	0.0777701
645.992	0.0789745
646.127	0.0784584
646.262	0.0784584
646.397	0.0796628
646.532	0.0765657
646.667	0.0788025
646.802	0.0788025
646.937	0.074329
647.072	0.0775981
647.207	0.077426
647.342	0.0781142
647.477	0.0788025
647.612	0.0760496
647.747	0.0760496
647.882	0.0794907
648.017	0.074501
648.152	0.0765657
648.287	0.0779422
648.422	0.0765657
648.557	0.0786304
648.692	0.0791466
648.827	0.077426
648.962	0.0767378
649.097	0.077426
649.232	0.0793187
649.367	0.0789745
649.502	0.0769098
649.637	0.077426
649.772	0.0758775
649.906	0.0775981
650.041	0.0784584
650.176	0.0784584
650.311	0.0781142
650.446	0.0788025
650.581	0.0760496
650.716	0.0782863
650.851	0.0784584
650.986	0.0782863
651.121	0.077254
651.256	0.0791466
651.391	0.0770819
651.526	0.0769098
651.661	0.077254
651.796	0.0755334
651.931	0.0786304
652.066	0.0777701
652.201	0.0798348
652.336	0.0757054
652.471	0.0796628
652.606	0.0782863
652.741	0.0779422
652.876	0.0779422
653.011	0.077426
653.146	0.0781142
653.281	0.0758775
653.415	0.0769098
653.55	0.0800069
653.685	0.0763937
653.82	0.0775981
653.955	0.0770819
654.09	0.0786304
654.225	0.0777701
654.36	0.0779422
654.495	0.0782863
654.63	0.077426
654.765	0.0779422
654.9	0.0739849
655.035	0.0765657
655.17	0.0763937
655.305	0.0788025
655.44	0.0786304
655.575	0.0782863
655.71	0.077254
655.845	0.077426
655.98	0.0786304
656.115	0.0753613
656.25	0.077426
656.384	0.0762216
656.519	0.0805231
656.654	0.0788025
656.789	0.0793187
656.924	0.0767378
657.059	0.077254
657.194	0.0791466
657.329	0.0791466
657.464	0.0798348
657.599	0.0763937
657.734	0.0779422
657.869	0.0781142
658.004	0.0781142
658.139	0.0769098
658.274	0.0777701
658.409	0.0781142
658.544	0.0770819
658.679	0.0796628
658.813	0.0781142
658.948	0.0770819
659.083	0.0791466
659.218	0.0762216
659.353	0.0788025
659.488	0.0794907
659.623	0.0793187
659.758	0.0763937
659.893	0.0765657
660.028	0.0786304
660.163	0.0789745
660.298	0.0769098
660.433	0.0751893
660.568	0.0782863
660.703	0.0784584
660.838	0.0781142
660.972	0.0786304
661.107	0.0781142
661.242	0.077254
661.377	0.0767378
661.512	0.0782863
661.647	0.0788025
661.782	0.0763937
661.917	0.0786304
662.052	0.0767378
662.187	0.0788025
662.322	0.0781142
662.457	0.0755334
662.592	0.0777701
662.727	0.0762216
662.862	0.0770819
662.996	0.0767378
663.131	0.0800069
663.266	0.0808672
663.401	0.0770819
663.536	0.0753613
663.671	0.0767378
663.806	0.0781142
663.941	0.0777701
664.076	0.0786304
664.211	0.0782863
664.346	0.0760496
664.481	0.0793187
664.616	0.0770819
664.75	0.0781142
664.885	0.0784584
665.02	0.0760496
665.155	0.0767378
665.29	0.077426
665.425	0.0770819
665.56	0.0769098
665.695	0.0788025
665.83	0.0762216
665.965	0.0784584
666.1	0.0789745
666.235	0.0765657
666.37	0.0765657
666.504	0.0788025
666.639	0.0777701
666.774	0.077254
666.909	0.0767378
667.044	0.0798348
667.179	0.0769098
667.314	0.0786304
667.449	0.0763937
667.584	0.0782863
667.719	0.074501
667.854	0.0775981
667.989	0.0788025
668.123	0.077254
668.258	0.077426
668.393	0.0794907
668.528	0.0767378
668.663	0.0763937
668.798	0.0750172
668.933	0.077254
669.068	0.0763937
669.203	0.0770819
669.338	0.0782863
669.473	0.0808672
669.607	0.0781142
669.742	0.0779422
669.877	0.0777701
670.012	0.077254
670.147	0.0793187
670.282	0.0777701
670.417	0.0763937
670.552	0.0794907
670.687	0.0769098
670.822	0.0782863
670.957	0.0777701
671.091	0.0770819
671.226	0.0784584
671.361	0.077426
671.496	0.0767378
671.631	0.0775981
671.766	0.0791466
671.901	0.0788025
672.036	0.0755334
672.171	0.0763937
672.306	0.0762216
672.44	0.0805231
672.575	0.0786304
672.71	0.0798348
672.845	0.0779422
672.98	0.0784584
673.115	0.0775981
673.25	0.0758775
673.385	0.0806951
673.52	0.0788025
673.655	0.0789745
673.789	0.0789745
673.924	0.0775981
674.059	0.0784584
674.194	0.0793187
674.329	0.0762216
674.464	0.0763937
674.599	0.0784584
674.734	0.0784584
674.869	0.0775981
675.003	0.0794907
675.138	0.077426
675.273	0.0767378
675.408	0.0779422
675.543	0.0777701
675.678	0.0767378
675.813	0.0777701
675.948	0.077426
676.083	0.0784584
676.217	0.0782863
676.352	0.0775981
676.487	0.0751893
676.622	0.0762216
676.757	0.0806951
676.892	0.0782863
677.027	0.0782863
677.162	0.0779422
677.297	0.0779422
677.431	0.077426
677.566	0.0763937
677.701	0.0758775
677.836	0.0784584
677.971	0.0781142
678.106	0.0794907
678.241	0.0779422
678.376	0.0760496
678.511	0.0770819
678.645	0.0786304
678.78	0.0760496
678.915	0.0775981
679.05	0.0755334
679.185	0.0793187
679.32	0.0760496
679.455	0.0777701
679.59	0.0779422
679.724	0.0770819
679.859	0.0791466
679.994	0.0765657
680.129	0.0810392
680.264	0.0805231
680.399	0.0788025
680.534	0.0794907
680.669	0.0755334
680.803	0.0794907
680.938	0.0769098
681.073	0.0791466
681.208	0.0765657
681.343	0.0777701
681.478	0.0788025
681.613	0.0751893
681.748	0.0801789
681.882	0.0770819
682.017	0.0775981
682.152	0.0777701
682.287	0.077254
682.422	0.0760496
682.557	0.0808672
682.692	0.0753613
682.827	0.0784584
682.961	0.0762216
683.096	0.0779422
683.231	0.0760496
683.366	0.0789745
683.501	0.0784584
683.636	0.077426
683.771	0.0794907
683.906	0.0779422
684.04	0.0781142
684.175	0.0789745
684.31	0.0810392
684.445	0.0777701
684.58	0.0793187
684.715	0.0788025
684.85	0.0770819
684.984	0.0789745
685.119	0.0751893
685.254	0.077426
685.389	0.074501
685.524	0.0789745
685.659	0.0781142
685.794	0.077254
685.928	0.0788025
686.063	0.0775981
686.198	0.0793187
686.333	0.0788025
686.468	0.0793187
686.603	0.0793187
686.738	0.0775981
686.872	0.0746731
687.007	0.0775981
687.142	0.0798348
687.277	0.0769098
687.412	0.0784584
687.547	0.0769098
687.682	0.0770819
687.816	0.077426
687.951	0.0770819
688.086	0.0750172
688.221	0.0784584
688.356	0.0765657
688.491	0.077426
688.626	0.0827598
688.76	0.0765657
688.895	0.0781142
689.03	0.0762216
689.165	0.0784584
689.3	0.0777701
689.435	0.0781142
689.57	0.077426
689.704	0.0789745
689.839	0.0782863
689.974	0.077254
690.109	0.077426
690.244	0.0788025
690.379	0.0760496
690.513	0.0775981
690.648	0.0794907
690.783	0.0750172
690.918	0.0788025
691.053	0.0765657
691.188	0.0775981
691.323	0.0777701
691.457	0.0786304
691.592	0.0779422
691.727	0.0770819
691.862	0.0786304
691.997	0.0786304
692.132	0.0777701
692.266	0.0770819
692.401	0.0798348
692.536	0.0763937
692.671	0.0770819
692.806	0.0763937
692.941	0.0793187
693.075	0.0788025
693.21	0.0753613
693.345	0.0784584
693.48	0.0762216
693.615	0.0781142
693.75	0.0784584
693.885	0.0781142
694.019	0.0760496
694.154	0.0775981
694.289	0.0770819
694.424	0.0770819
694.559	0.0769098
694.694	0.0762216
694.828	0.0770819
694.963	0.0762216
695.098	0.0798348
695.233	0.0760496
695.368	0.0781142
695.503	0.0781142
695.637	0.077426
695.772	0.0777701
695.907	0.077426
696.042	0.0793187
696.177	0.0791466
696.312	0.077254
696.446	0.0757054
696.581	0.0767378
696.716	0.0791466
696.851	0.0786304
696.986	0.0755334
697.12	0.0762216
697.255	0.0779422
697.39	0.0786304
697.525	0.0782863
697.66	0.0784584
697.795	0.0770819
697.929	0.0788025
698.064	0.0798348
698.199	0.0781142
698.334	0.0777701
698.469	0.0765657
698.604	0.0769098
698.738	0.0767378
698.873	0.077426
699.008	0.0777701
699.143	0.0775981
699.278	0.0775981
699.412	0.0784584
699.547	0.0789745
699.682	0.080351
699.817	0.0779422
699.952	0.0760496
700.087	0.0781142
700.221	0.0781142
700.356	0.0750172
700.491	0.0789745
700.626	0.0760496
700.761	0.0769098
700.895	0.0781142
701.03	0.0784584
701.165	0.0805231
701.3	0.077426
701.435	0.0770819
701.57	0.0808672
701.704	0.0781142
701.839	0.0794907
701.974	0.077254
702.109	0.0815554
702.244	0.0782863
702.378	0.0779422
702.513	0.0760496
702.648	0.0806951
702.783	0.0791466
702.918	0.0796628
703.052	0.077254
703.187	0.0770819
703.322	0.0781142
703.457	0.0801789
703.592	0.0788025
703.727	0.0769098
703.861	0.077254
703.996	0.0777701
704.131	0.0794907
704.266	0.0775981
704.401	0.0762216
704.535	0.0781142
704.67	0.077426
704.805	0.0810392
704.94	0.0779422
705.075	0.0777701
705.209	0.0781142
705.344	0.0789745
705.479	0.0767378
705.614	0.0748451
705.749	0.0763937
705.883	0.0794907
706.018	0.0779422
706.153	0.0770819
706.288	0.0775981
706.423	0.077254
706.557	0.0775981
706.692	0.0775981
706.827	0.080351
706.962	0.077426
707.097	0.0786304
707.231	0.0786304
707.366	0.0767378
707.501	0.0793187
707.636	0.0775981
707.771	0.077254
707.905	0.0760496
708.04	0.0777701
708.175	0.0782863
708.31	0.0789745
708.445	0.0769098
708.579	0.0779422
708.714	0.0794907
708.849	0.0786304
708.984	0.0793187
709.118	0.0779422
709.253	0.0769098
709.388	0.0781142
709.523	0.0793187
709.658	0.0786304
709.792	0.0765657
709.927	0.0781142
710.062	0.0770819
710.197	0.0763937
710.332	0.0770819
710.466	0.0801789
710.601	0.0817275
710.736	0.077254
710.871	0.0762216
711.006	0.0777701
711.14	0.0758775
711.275	0.0763937
711.41	0.0782863
711.545	0.0798348
711.679	0.0775981
711.814	0.0781142
711.949	0.0775981
712.084	0.0798348
712.219	0.0777701
712.353	0.0769098
712.488	0.0788025
712.623	0.0801789
712.758	0.0800069
712.892	0.0763937
713.027	0.0793187
713.162	0.0779422
713.297	0.077426
713.432	0.0777701
713.566	0.0765657
713.701	0.0784584
713.836	0.0808672
713.971	0.0801789
714.105	0.0779422
714.24	0.0760496
714.375	0.077426
714.51	0.0808672
714.645	0.0805231
714.779	0.0798348
714.914	0.0782863
715.049	0.0800069
715.184	0.0751893
715.318	0.0760496
715.453	0.077254
715.588	0.0775981
715.723	0.0777701
715.858	0.0775981
715.992	0.0788025
716.127	0.0784584
716.262	0.0782863
716.397	0.0784584
716.531	0.0769098
716.666	0.0786304
716.801	0.0762216
716.936	0.0796628
717.07	0.0769098
717.205	0.0801789
717.34	0.0800069
717.475	0.077254
717.61	0.0789745
717.744	0.0779422
717.879	0.0793187
718.014	0.0788025
718.149	0.0775981
718.283	0.0765657
718.418	0.0788025
718.553	0.0791466
718.688	0.0770819
718.822	0.0796628
718.957	0.0791466
719.092	0.0788025
719.227	0.0767378
719.361	0.0793187
719.496	0.077426
719.631	0.0789745
719.766	0.0784584
719.9	0.0758775
720.035	0.0786304
720.17	0.0775981
720.305	0.0755334
720.44	0.0751893
720.574	0.0779422
720.709	0.0818995
720.844	0.0767378
720.979	0.077426
721.113	0.0739849
721.248	0.077426
721.383	0.0781142
721.518	0.0788025
721.652	0.077426
721.787	0.0770819
721.922	0.0775981
722.057	0.0769098
722.191	0.0779422
722.326	0.0760496
722.461	0.077254
722.596	0.0763937
722.73	0.0777701
722.865	0.077426
723	0.0775981
723.135	0.080351
723.269	0.0777701
723.404	0.0755334
723.539	0.0765657
723.674	0.0789745
723.808	0.0760496
723.943	0.0788025
724.078	0.0784584
724.213	0.0793187
724.347	0.0791466
724.482	0.0784584
724.617	0.0791466
724.752	0.0762216
724.886	0.0777701
725.021	0.0767378
725.156	0.0794907
725.291	0.0775981
725.425	0.0779422
725.56	0.0767378
725.695	0.0798348
725.829	0.0760496
725.964	0.0784584
726.099	0.0782863
726.234	0.0788025
726.368	0.0786304
726.503	0.0767378
726.638	0.0757054
726.773	0.077254
726.907	0.0779422
727.042	0.0775981
727.177	0.0775981
727.312	0.0760496
727.446	0.0767378
727.581	0.0796628
727.716	0.0788025
727.851	0.0769098
727.985	0.080351
728.12	0.0775981
728.255	0.0775981
728.389	0.0793187
728.524	0.0779422
728.659	0.0779422
728.794	0.0760496
728.928	0.077426
729.063	0.0781142
729.198	0.0770819
729.333	0.0789745
729.467	0.077254
729.602	0.0755334
729.737	0.077426
729.872	0.0777701
730.006	0.0765657
730.141	0.077426
730.276	0.0796628
730.41	0.0820716
730.545	0.0794907
730.68	0.0796628
730.815	0.0767378
730.949	0.0791466
731.084	0.0781142
731.219	0.0763937
731.354	0.077426
731.488	0.0770819
731.623	0.0794907
731.758	0.0784584
731.892	0.077254
732.027	0.0767378
732.162	0.0788025
732.297	0.0769098
732.431	0.0769098
732.566	0.0779422
732.701	0.0777701
732.835	0.0784584
732.97	0.0777701
733.105	0.0762216
733.24	0.0751893
733.374	0.0801789
733.509	0.0767378
733.644	0.0782863
733.779	0.0770819
733.913	0.0786304
734.048	0.0751893
734.183	0.0760496
734.317	0.077254
734.452	0.0753613
734.587	0.0777701
734.722	0.0798348
734.856	0.077426
734.991	0.077426
735.126	0.0746731
735.26	0.0775981
735.395	0.0770819
735.53	0.0782863
735.665	0.0800069
735.799	0.0775981
735.934	0.0791466
736.069	0.0767378
736.203	0.0767378
736.338	0.0775981
736.473	0.0775981
736.607	0.0781142
736.742	0.077426
736.877	0.0769098
737.012	0.0784584
737.146	0.0813833
737.281	0.0769098
737.416	0.0779422
737.55	0.0786304
737.685	0.0779422
737.82	0.077254
737.955	0.0762216
738.089	0.0788025
738.224	0.077254
738.359	0.0786304
738.493	0.0755334
738.628	0.0763937
738.763	0.0786304
738.897	0.0782863
739.032	0.0786304
739.167	0.0775981
739.302	0.0769098
739.436	0.0763937
739.571	0.0794907
739.706	0.0767378
739.84	0.0789745
739.975	0.0769098
740.11	0.077254
740.244	0.077426
740.379	0.0794907
740.514	0.0775981
740.649	0.0782863
740.783	0.0788025
740.918	0.0782863
741.053	0.0751893
741.187	0.0770819
741.322	0.074501
741.457	0.0788025
741.591	0.0777701
741.726	0.0789745
741.861	0.0779422
741.996	0.0782863
742.13	0.0765657
742.265	0.0815554
742.4	0.0794907
742.534	0.0782863
742.669	0.0775981
742.804	0.0779422
742.938	0.0784584
743.073	0.0779422
743.208	0.0762216
743.342	0.0777701
743.477	0.0741569
743.612	0.0779422
743.747	0.0779422
743.881	0.0762216
744.016	0.077426
744.151	0.0755334
744.285	0.0779422
744.42	0.0786304
744.555	0.0765657
744.689	0.077254
744.824	0.0769098
744.959	0.0762216
745.093	0.0763937
745.228	0.0767378
745.363	0.077254
745.497	0.0777701
745.632	0.0788025
745.767	0.0786304
745.901	0.077426
746.036	0.0769098
746.171	0.0775981
746.305	0.0770819
746.44	0.0789745
746.575	0.077254
746.71	0.0769098
746.844	0.0796628
746.979	0.0782863
747.114	0.0770819
747.248	0.0789745
747.383	0.077426
747.518	0.077254
747.652	0.0794907
747.787	0.0786304
747.922	0.0762216
748.056	0.0781142
748.191	0.0784584
748.326	0.0793187
748.46	0.0770819
748.595	0.0796628
748.73	0.0791466
748.864	0.0786304
748.999	0.0767378
749.134	0.0781142
749.268	0.0789745
749.403	0.0767378
749.538	0.0769098
749.672	0.0767378
749.807	0.077254
749.942	0.0770819
750.076	0.0767378
750.211	0.0767378
750.346	0.0791466
750.48	0.077254
750.615	0.0781142
750.75	0.0757054
750.884	0.0789745
751.019	0.0781142
751.154	0.0781142
751.288	0.0784584
751.423	0.0757054
751.558	0.0760496
751.692	0.0769098
751.827	0.0762216
751.962	0.077426
752.096	0.0781142
752.231	0.0808672
752.366	0.0784584
752.5	0.0770819
752.635	0.0765657
752.77	0.0801789
752.904	0.0801789
753.039	0.077426
753.174	0.0794907
753.308	0.0782863
753.443	0.0775981
753.578	0.0738128
753.712	0.0789745
753.847	0.0788025
753.982	0.0769098
754.116	0.077426
754.251	0.0779422
754.386	0.0784584
754.52	0.0777701
754.655	0.0777701
754.79	0.0779422
754.924	0.0760496
755.059	0.0777701
755.194	0.0784584
755.328	0.0765657
755.463	0.077426
755.597	0.0767378
755.732	0.0762216
755.867	0.077254
756.001	0.0762216
756.136	0.0782863
756.271	0.0753613
756.405	0.0789745
756.54	0.0782863
756.675	0.0765657
756.809	0.0767378
756.944	0.0789745
757.079	0.0765657
757.213	0.0784584
757.348	0.0782863
757.483	0.0760496
757.617	0.0762216
757.752	0.0753613
757.887	0.0788025
758.021	0.077254
758.156	0.0788025
758.29	0.0758775
758.425	0.0782863
758.56	0.0760496
758.694	0.0767378
758.829	0.0755334
758.964	0.0779422
759.098	0.077254
759.233	0.0775981
759.368	0.0798348
759.502	0.0791466
759.637	0.0781142
759.772	0.0781142
759.906	0.0760496
760.041	0.077426
760.175	0.0763937
760.31	0.074501
760.445	0.0777701
