Source: Spectrum Viewer

Chart: Pulse Spectrum

Series: 
Wavelength (nm)	S (a.u.)
617.638	0.0497322
617.773	0.0498415
617.908	0.0490764
618.043	0.0489671
618.178	0.0510438
618.313	0.0498415
618.448	0.0504973
618.583	0.0495136
618.718	0.0497322
618.853	0.0494043
618.988	0.0506066
619.123	0.0480927
619.258	0.0511531
619.394	0.0497322
619.529	0.0488578
619.664	0.0490764
619.799	0.0509345
619.934	0.049295
620.069	0.0500601
620.204	0.0497322
620.339	0.0483113
620.474	0.0496229
620.609	0.0483113
620.744	0.0497322
620.879	0.0489671
621.014	0.0495136
621.149	0.0494043
621.284	0.0497322
621.419	0.0491857
621.554	0.0494043
621.689	0.0494043
621.825	0.0490764
621.96	0.0512624
622.095	0.0500601
622.23	0.0479834
622.365	0.0475462
622.5	0.0494043
622.635	0.049295
622.77	0.0485299
622.905	0.0504973
623.04	0.0506066
623.175	0.0491857
623.31	0.0496229
623.445	0.0483113
623.58	0.0489671
623.715	0.0496229
623.85	0.0496229
623.985	0.0501694
624.12	0.0496229
624.255	0.050388
624.39	0.0496229
624.525	0.0490764
624.661	0.0487485
624.796	0.0488578
624.931	0.0483113
625.066	0.0500601
625.201	0.0511531
625.336	0.0494043
625.471	0.0485299
625.606	0.0490764
625.741	0.0500601
625.876	0.0487485
626.011	0.0494043
626.146	0.0495136
626.281	0.0502787
626.416	0.0510438
626.551	0.0511531
626.686	0.0495136
626.821	0.0504973
626.956	0.0487485
627.091	0.0486392
627.226	0.0495136
627.361	0.0495136
627.496	0.0499508
627.631	0.0491857
627.766	0.0506066
627.901	0.049295
628.036	0.0494043
628.171	0.0485299
628.307	0.0488578
628.442	0.0485299
628.577	0.0491857
628.712	0.0495136
628.847	0.0495136
628.982	0.0502787
629.117	0.0502787
629.252	0.0496229
629.387	0.0491857
629.522	0.0488578
629.657	0.0499508
629.792	0.0491857
629.927	0.0502787
630.062	0.0501694
630.197	0.0507159
630.332	0.0500601
630.467	0.048202
630.602	0.0486392
630.737	0.0479834
630.872	0.0500601
631.007	0.0506066
631.142	0.0506066
631.277	0.0498415
631.412	0.0491857
631.547	0.050388
631.682	0.0486392
631.817	0.0494043
631.952	0.0500601
632.087	0.0499508
632.222	0.0486392
632.357	0.050388
632.492	0.0495136
632.627	0.0508252
632.762	0.050388
632.897	0.0499508
633.032	0.0499508
633.167	0.049295
633.302	0.0486392
633.437	0.0489671
633.572	0.0501694
633.707	0.0502787
633.842	0.0495136
633.978	0.0494043
634.113	0.0502787
634.248	0.0507159
634.383	0.0475462
634.518	0.0486392
634.653	0.0496229
634.788	0.0500601
634.923	0.0489671
635.058	0.0491857
635.193	0.0506066
635.328	0.0489671
635.463	0.0500601
635.598	0.0494043
635.733	0.0494043
635.868	0.0490764
636.003	0.0490764
636.138	0.0500601
636.273	0.0502787
636.408	0.0491857
636.543	0.0502787
636.678	0.0491857
636.813	0.0497322
636.948	0.0500601
637.083	0.049295
637.218	0.0488578
637.353	0.0484206
637.488	0.0497322
637.623	0.0478741
637.758	0.0494043
637.893	0.0506066
638.028	0.0513717
638.163	0.0491857
638.298	0.0496229
638.433	0.0488578
638.568	0.0497322
638.703	0.0495136
638.838	0.0491857
638.973	0.0506066
639.108	0.0499508
639.243	0.0496229
639.378	0.0501694
639.513	0.0484206
639.648	0.0499508
639.783	0.0504973
639.918	0.0484206
640.053	0.0491857
640.188	0.0490764
640.323	0.0499508
640.458	0.049295
640.593	0.049295
640.728	0.0497322
640.863	0.0495136
640.998	0.0501694
641.133	0.0488578
641.268	0.0502787
641.403	0.0495136
641.538	0.0486392
641.673	0.0509345
641.808	0.0485299
641.943	0.0496229
642.078	0.0495136
642.213	0.0495136
642.348	0.0500601
642.483	0.0479834
642.618	0.049295
642.753	0.0469997
642.888	0.049295
643.023	0.0499508
643.158	0.0508252
643.293	0.0496229
643.428	0.0490764
643.563	0.0487485
643.698	0.0497322
643.833	0.0488578
643.968	0.0488578
644.103	0.0496229
644.237	0.0501694
644.372	0.0485299
644.507	0.0495136
644.642	0.0487485
644.777	0.0495136
644.912	0.0510438
645.047	0.0495136
645.182	0.049295
645.317	0.0490764
645.452	0.0487485
645.587	0.0497322
645.722	0.0486392
645.857	0.0510438
645.992	0.048202
646.127	0.0496229
646.262	0.049295
646.397	0.0500601
646.532	0.0488578
646.667	0.0486392
646.802	0.0501694
646.937	0.0486392
647.072	0.0490764
647.207	0.0485299
647.342	0.0486392
647.477	0.0506066
647.612	0.0484206
647.747	0.0500601
647.882	0.0501694
648.017	0.0483113
648.152	0.0507159
648.287	0.0500601
648.422	0.0504973
648.557	0.0476555
648.692	0.0496229
648.827	0.0507159
648.962	0.0499508
649.097	0.0497322
649.232	0.049295
649.367	0.0501694
649.502	0.0504973
649.637	0.0498415
649.772	0.0489671
649.906	0.0490764
650.041	0.0485299
650.176	0.0484206
650.311	0.0489671
650.446	0.0494043
650.581	0.0506066
650.716	0.0490764
650.851	0.0500601
650.986	0.0486392
651.121	0.0484206
651.256	0.049295
651.391	0.0504973
651.526	0.0495136
651.661	0.0491857
651.796	0.0501694
651.931	0.0506066
652.066	0.0502787
652.201	0.0502787
652.336	0.0483113
652.471	0.0480927
652.606	0.0497322
652.741	0.0489671
652.876	0.0496229
653.011	0.0478741
653.146	0.0488578
653.281	0.0496229
653.415	0.0499508
653.55	0.048202
653.685	0.0491857
653.82	0.0490764
653.955	0.0479834
654.09	0.0498415
654.225	0.0488578
654.36	0.0490764
654.495	0.0494043
654.63	0.049295
654.765	0.0497322
654.9	0.0516996
655.035	0.0497322
655.17	0.0491857
655.305	0.0501694
655.44	0.0502787
655.575	0.0500601
655.71	0.0491857
655.845	0.0498415
655.98	0.0502787
656.115	0.0498415
656.25	0.0483113
656.384	0.0485299
656.519	0.0489671
656.654	0.0485299
656.789	0.0506066
656.924	0.0498415
657.059	0.0497322
657.194	0.049295
657.329	0.049295
657.464	0.0495136
657.599	0.0491857
657.734	0.0491857
657.869	0.0494043
658.004	0.0491857
658.139	0.0500601
658.274	0.049295
658.409	0.0499508
658.544	0.0497322
658.679	0.0486392
658.813	0.0459067
658.948	0.0500601
659.083	0.0498415
659.218	0.049295
659.353	0.0489671
659.488	0.0498415
659.623	0.0478741
659.758	0.049295
659.893	0.0479834
660.028	0.0511531
660.163	0.049295
660.298	0.0499508
660.433	0.0489671
660.568	0.0487485
660.703	0.0495136
660.838	0.0502787
660.972	0.0495136
661.107	0.0496229
661.242	0.0499508
661.377	0.0491857
661.512	0.0510438
661.647	0.049295
661.782	0.0478741
661.917	0.0500601
662.052	0.0490764
662.187	0.0496229
662.322	0.0478741
662.457	0.0496229
662.592	0.0483113
662.727	0.0491857
662.862	0.049295
662.996	0.0501694
663.131	0.0483113
663.266	0.0485299
663.401	0.0495136
663.536	0.0497322
663.671	0.0504973
663.806	0.049295
663.941	0.0487485
664.076	0.0487485
664.211	0.0495136
664.346	0.0491857
664.481	0.0485299
664.616	0.0510438
664.75	0.0518089
664.885	0.0501694
665.02	0.0501694
665.155	0.0496229
665.29	0.0499508
665.425	0.0495136
665.56	0.0494043
665.695	0.0508252
665.83	0.0488578
665.965	0.0487485
666.1	0.0506066
666.235	0.0504973
666.37	0.0490764
666.504	0.0497322
666.639	0.0498415
666.774	0.0506066
666.909	0.0500601
667.044	0.0479834
667.179	0.0498415
667.314	0.0475462
667.449	0.0483113
667.584	0.0491857
667.719	0.0507159
667.854	0.0487485
667.989	0.0498415
668.123	0.0487485
668.258	0.0507159
668.393	0.0502787
668.528	0.0488578
668.663	0.0495136
668.798	0.0483113
668.933	0.0509345
669.068	0.0488578
669.203	0.050388
669.338	0.049295
669.473	0.0501694
669.607	0.0472183
669.742	0.0501694
669.877	0.0498415
670.012	0.0496229
670.147	0.0497322
670.282	0.0495136
670.417	0.0484206
670.552	0.0501694
670.687	0.0495136
670.822	0.0499508
670.957	0.0487485
671.091	0.0501694
671.226	0.0496229
671.361	0.0497322
671.496	0.049295
671.631	0.049295
671.766	0.049295
671.901	0.0489671
672.036	0.0499508
672.171	0.0496229
672.306	0.0489671
672.44	0.0495136
672.575	0.0487485
672.71	0.0490764
672.845	0.0510438
672.98	0.0495136
673.115	0.0496229
673.25	0.0497322
673.385	0.0487485
673.52	0.0494043
673.655	0.0500601
673.789	0.0490764
673.924	0.0489671
674.059	0.050388
674.194	0.0496229
674.329	0.0499508
674.464	0.0487485
674.599	0.0506066
674.734	0.0498415
674.869	0.0499508
675.003	0.0474369
675.138	0.0500601
675.273	0.0501694
675.408	0.0491857
675.543	0.0484206
675.678	0.0496229
675.813	0.0499508
675.948	0.0498415
676.083	0.0497322
676.217	0.0498415
676.352	0.0499508
676.487	0.0495136
676.622	0.0478741
676.757	0.0494043
676.892	0.0506066
677.027	0.0496229
677.162	0.0479834
677.297	0.0513717
677.431	0.0499508
677.566	0.0497322
677.701	0.0502787
677.836	0.0490764
677.971	0.0495136
678.106	0.0512624
678.241	0.0495136
678.376	0.0495136
678.511	0.049295
678.645	0.048202
678.78	0.0484206
678.915	0.0485299
679.05	0.0504973
679.185	0.0495136
679.32	0.048202
679.455	0.0475462
679.59	0.0487485
679.724	0.0485299
679.859	0.0496229
679.994	0.0497322
680.129	0.0485299
680.264	0.0499508
680.399	0.0497322
680.534	0.0484206
680.669	0.0495136
680.803	0.0499508
680.938	0.0487485
681.073	0.0500601
681.208	0.0480927
681.343	0.0477648
681.478	0.0509345
681.613	0.0483113
681.748	0.049295
681.882	0.0490764
682.017	0.0502787
682.152	0.0499508
682.287	0.0501694
682.422	0.0495136
682.557	0.0496229
682.692	0.0496229
682.827	0.0507159
682.961	0.0475462
683.096	0.0494043
683.231	0.0495136
683.366	0.0496229
683.501	0.0491857
683.636	0.0483113
683.771	0.0477648
683.906	0.0476555
684.04	0.0496229
684.175	0.0501694
684.31	0.0498415
684.445	0.0497322
684.58	0.0496229
684.715	0.0497322
684.85	0.048202
684.984	0.0483113
685.119	0.0515903
685.254	0.0489671
685.389	0.0486392
685.524	0.0504973
685.659	0.0501694
685.794	0.0480927
685.928	0.0495136
686.063	0.0489671
686.198	0.0496229
686.333	0.0496229
686.468	0.0490764
686.603	0.0485299
686.738	0.0487485
686.872	0.0496229
687.007	0.0488578
687.142	0.0488578
687.277	0.0500601
687.412	0.049295
687.547	0.0491857
687.682	0.049295
687.816	0.0486392
687.951	0.0497322
688.086	0.0497322
688.221	0.0500601
688.356	0.0484206
688.491	0.048202
688.626	0.0491857
688.76	0.0509345
688.895	0.0497322
689.03	0.0484206
689.165	0.049295
689.3	0.0491857
689.435	0.0496229
689.57	0.0474369
689.704	0.0487485
689.839	0.049295
689.974	0.0497322
690.109	0.0494043
690.244	0.0495136
690.379	0.0480927
690.513	0.0518089
690.648	0.0502787
690.783	0.0490764
690.918	0.049295
691.053	0.050388
691.188	0.0506066
691.323	0.0497322
691.457	0.0498415
691.592	0.0477648
691.727	0.049295
691.862	0.0497322
691.997	0.0494043
692.132	0.0487485
692.266	0.0477648
692.401	0.0499508
692.536	0.0494043
692.671	0.0506066
692.806	0.0504973
692.941	0.0485299
693.075	0.0494043
693.21	0.0506066
693.345	0.0498415
693.48	0.0495136
693.615	0.0491857
693.75	0.0488578
693.885	0.0500601
694.019	0.0488578
694.154	0.050388
694.289	0.0496229
694.424	0.0509345
694.559	0.0500601
694.694	0.0497322
694.828	0.0502787
694.963	0.0494043
695.098	0.0499508
695.233	0.0509345
695.368	0.0500601
695.503	0.049295
695.637	0.0498415
695.772	0.0486392
695.907	0.049295
696.042	0.0507159
696.177	0.0490764
696.312	0.049295
696.446	0.0502787
696.581	0.0495136
696.716	0.0498415
696.851	0.0497322
696.986	0.0480927
697.12	0.0491857
697.255	0.0485299
697.39	0.0494043
697.525	0.048202
697.66	0.0484206
697.795	0.0494043
697.929	0.0474369
698.064	0.0490764
698.199	0.0499508
698.334	0.0496229
698.469	0.049295
698.604	0.0494043
698.738	0.0500601
698.873	0.0506066
699.008	0.049295
699.143	0.0497322
699.278	0.0489671
699.412	0.0486392
699.547	0.048202
699.682	0.0490764
699.817	0.0494043
699.952	0.0484206
700.087	0.048202
700.221	0.0485299
700.356	0.0472183
700.491	0.048202
700.626	0.0468904
700.761	0.0496229
700.895	0.0504973
701.03	0.0494043
701.165	0.0509345
701.3	0.0490764
701.435	0.0500601
701.57	0.050388
701.704	0.0504973
701.839	0.0487485
701.974	0.0490764
702.109	0.0497322
702.244	0.049295
702.378	0.0499508
702.513	0.0498415
702.648	0.0507159
702.783	0.0491857
702.918	0.0496229
703.052	0.0491857
703.187	0.0488578
703.322	0.0494043
703.457	0.0485299
703.592	0.0491857
703.727	0.0475462
703.861	0.0498415
703.996	0.0491857
704.131	0.0500601
704.266	0.0487485
704.401	0.0496229
704.535	0.048202
704.67	0.0475462
704.805	0.0501694
704.94	0.0502787
705.075	0.0499508
705.209	0.0496229
705.344	0.0483113
705.479	0.0478741
705.614	0.0483113
705.749	0.0484206
705.883	0.0491857
706.018	0.049295
706.153	0.0501694
706.288	0.0502787
706.423	0.0498415
706.557	0.0487485
706.692	0.0498415
706.827	0.0499508
706.962	0.0494043
707.097	0.0495136
707.231	0.0494043
707.366	0.0488578
707.501	0.0509345
707.636	0.0495136
707.771	0.0497322
707.905	0.0495136
708.04	0.0499508
708.175	0.0486392
708.31	0.0483113
708.445	0.0497322
708.579	0.0494043
708.714	0.0490764
708.849	0.0504973
708.984	0.0499508
709.118	0.0502787
709.253	0.0483113
709.388	0.0511531
709.523	0.0515903
709.658	0.0495136
709.792	0.0485299
709.927	0.0483113
710.062	0.0485299
710.197	0.050388
710.332	0.0496229
710.466	0.0506066
710.601	0.0490764
710.736	0.0479834
710.871	0.0499508
711.006	0.050388
711.14	0.0494043
711.275	0.0500601
711.41	0.0489671
711.545	0.0499508
711.679	0.049295
711.814	0.0496229
711.949	0.0495136
712.084	0.0495136
712.219	0.0476555
712.353	0.0495136
712.488	0.0510438
712.623	0.0501694
712.758	0.0485299
712.892	0.0486392
713.027	0.0486392
713.162	0.0494043
713.297	0.0498415
713.432	0.0506066
713.566	0.048202
713.701	0.0512624
713.836	0.0491857
713.971	0.0498415
714.105	0.0490764
714.24	0.0496229
714.375	0.050388
714.51	0.0476555
714.645	0.0499508
714.779	0.0488578
714.914	0.0510438
715.049	0.0500601
715.184	0.0488578
715.318	0.0497322
715.453	0.0475462
715.588	0.0524648
715.723	0.0485299
715.858	0.0487485
715.992	0.0507159
716.127	0.0497322
716.262	0.0490764
716.397	0.0508252
716.531	0.0494043
716.666	0.0487485
716.801	0.0510438
716.936	0.0499508
717.07	0.0485299
717.205	0.050388
717.34	0.049295
717.475	0.0491857
717.61	0.0496229
717.744	0.0513717
717.879	0.0498415
718.014	0.0491857
718.149	0.0520275
718.283	0.049295
718.418	0.0486392
718.553	0.0496229
718.688	0.0496229
718.822	0.0501694
718.957	0.0500601
719.092	0.0502787
719.227	0.0490764
719.361	0.0477648
719.496	0.0478741
719.631	0.0496229
719.766	0.0485299
719.9	0.0488578
720.035	0.0495136
720.17	0.0504973
720.305	0.0487485
720.44	0.0494043
720.574	0.0499508
720.709	0.0485299
720.844	0.0500601
720.979	0.0500601
721.113	0.0486392
721.248	0.0495136
721.383	0.0490764
721.518	0.0507159
721.652	0.0509345
721.787	0.0494043
721.922	0.0498415
722.057	0.0501694
722.191	0.049295
722.326	0.0495136
722.461	0.0486392
722.596	0.0500601
722.73	0.0490764
722.865	0.0488578
723	0.0461253
723.135	0.0500601
723.269	0.0501694
723.404	0.0488578
723.539	0.0489671
723.674	0.0508252
723.808	0.0497322
723.943	0.0496229
724.078	0.0491857
724.213	0.049295
724.347	0.0487485
724.482	0.0501694
724.617	0.0500601
724.752	0.0496229
724.886	0.0512624
725.021	0.0486392
725.156	0.0495136
725.291	0.0484206
725.425	0.0494043
725.56	0.0488578
725.695	0.0469997
725.829	0.0499508
725.964	0.0487485
726.099	0.049295
726.234	0.0484206
726.368	0.0494043
726.503	0.0494043
726.638	0.0495136
726.773	0.0488578
726.907	0.0476555
727.042	0.0506066
727.177	0.0497322
727.312	0.0487485
727.446	0.0495136
727.581	0.049295
727.716	0.0490764
727.851	0.0483113
727.985	0.0498415
728.12	0.0480927
728.255	0.0506066
728.389	0.0494043
728.524	0.0489671
728.659	0.0500601
728.794	0.0490764
728.928	0.0496229
729.063	0.0499508
729.198	0.0489671
729.333	0.0484206
729.467	0.0489671
729.602	0.048202
729.737	0.0499508
729.872	0.0504973
730.006	0.0497322
730.141	0.0501694
730.276	0.0485299
730.41	0.0489671
730.545	0.0497322
730.68	0.0497322
730.815	0.0499508
730.949	0.049295
731.084	0.0501694
731.219	0.0485299
731.354	0.0483113
731.488	0.0489671
731.623	0.0483113
731.758	0.0484206
731.892	0.0494043
732.027	0.0506066
732.162	0.0497322
732.297	0.0485299
732.431	0.0490764
732.566	0.0485299
732.701	0.0494043
732.835	0.0475462
732.97	0.0495136
733.105	0.0500601
733.24	0.0487485
733.374	0.0486392
733.509	0.0490764
733.644	0.0495136
733.779	0.0489671
733.913	0.0487485
734.048	0.0491857
734.183	0.0499508
734.317	0.0496229
734.452	0.0501694
734.587	0.0488578
734.722	0.0506066
734.856	0.0485299
734.991	0.0475462
735.126	0.049295
735.26	0.049295
735.395	0.0506066
735.53	0.0508252
735.665	0.0495136
735.799	0.049295
735.934	0.0485299
736.069	0.0500601
736.203	0.0490764
736.338	0.0500601
736.473	0.049295
736.607	0.0487485
736.742	0.050388
736.877	0.0480927
737.012	0.0508252
737.146	0.0488578
737.281	0.0500601
737.416	0.0474369
737.55	0.0491857
737.685	0.0501694
737.82	0.0496229
737.955	0.0499508
738.089	0.050388
738.224	0.0497322
738.359	0.049295
738.493	0.050388
738.628	0.0495136
738.763	0.0498415
738.897	0.0506066
739.032	0.0491857
739.167	0.0497322
739.302	0.0513717
739.436	0.0510438
739.571	0.0489671
739.706	0.0487485
739.84	0.0501694
739.975	0.0489671
740.11	0.0455788
740.244	0.048202
740.379	0.0491857
740.514	0.0511531
740.649	0.0490764
740.783	0.0496229
740.918	0.0495136
741.053	0.0487485
741.187	0.0489671
741.322	0.0502787
741.457	0.0495136
741.591	0.0509345
741.726	0.0488578
741.861	0.0480927
741.996	0.049295
742.13	0.0489671
742.265	0.0499508
742.4	0.0513717
742.534	0.0490764
742.669	0.0490764
742.804	0.049295
742.938	0.0487485
743.073	0.0504973
743.208	0.0486392
743.342	0.0489671
743.477	0.0480927
743.612	0.050388
743.747	0.0490764
743.881	0.0495136
744.016	0.0501694
744.151	0.0506066
744.285	0.0491857
744.42	0.050388
744.555	0.050388
744.689	0.0487485
744.824	0.0489671
744.959	0.0487485
745.093	0.0487485
745.228	0.0489671
745.363	0.0508252
745.497	0.0485299
745.632	0.0499508
745.767	0.0499508
745.901	0.0500601
746.036	0.0496229
746.171	0.0502787
746.305	0.0488578
746.44	0.0488578
746.575	0.0489671
746.71	0.0506066
746.844	0.0477648
746.979	0.0496229
747.114	0.0500601
747.248	0.0478741
747.383	0.0515903
747.518	0.0500601
747.652	0.0485299
747.787	0.0494043
747.922	0.0495136
748.056	0.0509345
748.191	0.0497322
748.326	0.0509345
748.46	0.0500601
748.595	0.048202
748.73	0.0487485
748.864	0.049295
748.999	0.0487485
749.134	0.0500601
749.268	0.0486392
749.403	0.0509345
749.538	0.0498415
749.672	0.0491857
749.807	0.0504973
749.942	0.0508252
750.076	0.050388
750.211	0.0484206
750.346	0.0484206
750.48	0.0487485
750.615	0.0490764
750.75	0.0510438
750.884	0.0478741
751.019	0.0496229
751.154	0.049295
751.288	0.049295
751.423	0.0499508
751.558	0.0497322
751.692	0.0483113
751.827	0.0484206
751.962	0.0498415
752.096	0.0499508
752.231	0.0507159
752.366	0.0487485
752.5	0.0495136
752.635	0.0487485
752.77	0.0499508
752.904	0.0500601
753.039	0.0494043
753.174	0.0476555
753.308	0.0489671
753.443	0.048202
753.578	0.0498415
753.712	0.049295
753.847	0.0494043
753.982	0.0502787
754.116	0.0498415
754.251	0.0498415
754.386	0.0494043
754.52	0.0480927
754.655	0.0496229
754.79	0.0494043
754.924	0.0498415
755.059	0.0495136
755.194	0.0502787
755.328	0.0500601
755.463	0.0506066
755.597	0.0490764
755.732	0.0498415
755.867	0.049295
756.001	0.0489671
756.136	0.0488578
756.271	0.0484206
756.405	0.0478741
756.54	0.048202
756.675	0.0487485
756.809	0.049295
756.944	0.0497322
757.079	0.0491857
757.213	0.0504973
757.348	0.0494043
757.483	0.0506066
757.617	0.0500601
757.752	0.0491857
757.887	0.049295
758.021	0.0496229
758.156	0.0509345
758.29	0.0487485
758.425	0.049295
758.56	0.0502787
758.694	0.0495136
758.829	0.0502787
758.964	0.0496229
759.098	0.0490764
759.233	0.0487485
759.368	0.0488578
759.502	0.050388
759.637	0.0506066
759.772	0.0490764
759.906	0.0488578
760.041	0.0483113
760.175	0.0494043
760.31	0.0484206
