Source: Spectrum Viewer

Chart: Pulse Spectrum

Series: 
Wavelength (nm)	S (a.u.)
617.638	0.0544088
617.773	0.052977
617.908	0.0536929
618.043	0.052977
618.178	0.0553633
618.313	0.0524997
618.448	0.0539315
618.583	0.0541701
618.718	0.0532156
618.853	0.0547667
618.988	0.0547667
619.123	0.0541701
619.258	0.0533349
619.394	0.0530963
619.529	0.0536929
619.664	0.0536929
619.799	0.0546474
619.934	0.0532156
620.069	0.0553633
620.204	0.0546474
620.339	0.055602
620.474	0.0548861
620.609	0.0559599
620.744	0.0522611
620.879	0.0545281
621.014	0.0540508
621.149	0.0538122
621.284	0.0523804
621.419	0.0547667
621.554	0.0533349
621.689	0.0544088
621.825	0.0534542
621.96	0.0532156
622.095	0.0540508
622.23	0.0542895
622.365	0.0528577
622.5	0.0541701
622.635	0.0530963
622.77	0.0541701
622.905	0.0530963
623.04	0.0547667
623.175	0.0545281
623.31	0.0540508
623.445	0.0545281
623.58	0.0533349
623.715	0.0559599
623.85	0.0541701
623.985	0.0541701
624.12	0.0528577
624.255	0.0522611
624.39	0.0541701
624.525	0.0547667
624.661	0.0547667
624.796	0.0541701
624.931	0.0528577
625.066	0.0557213
625.201	0.0545281
625.336	0.0532156
625.471	0.0534542
625.606	0.0536929
625.741	0.0536929
625.876	0.0533349
626.011	0.0538122
626.146	0.0533349
626.281	0.0553633
626.416	0.0539315
626.551	0.0550054
626.686	0.0541701
626.821	0.0536929
626.956	0.0548861
627.091	0.0530963
627.226	0.0535736
627.361	0.055602
627.496	0.052977
627.631	0.0553633
627.766	0.0539315
627.901	0.0534542
628.036	0.0546474
628.171	0.0528577
628.307	0.0545281
628.442	0.0538122
628.577	0.0536929
628.712	0.0527383
628.847	0.0534542
628.982	0.0520224
629.117	0.0516645
629.252	0.0527383
629.387	0.0527383
629.522	0.0551247
629.657	0.0532156
629.792	0.0528577
629.927	0.0532156
630.062	0.0527383
630.197	0.052977
630.332	0.0533349
630.467	0.0548861
630.602	0.0545281
630.737	0.0535736
630.872	0.0524997
631.007	0.0540508
631.142	0.0561985
631.277	0.052619
631.412	0.0538122
631.547	0.0540508
631.682	0.0547667
631.817	0.0540508
631.952	0.0535736
632.087	0.0550054
632.222	0.0546474
632.357	0.052619
632.492	0.052977
632.627	0.0534542
632.762	0.0532156
632.897	0.0551247
633.032	0.0516645
633.167	0.0540508
633.302	0.0535736
633.437	0.0536929
633.572	0.0540508
633.707	0.055602
633.842	0.0530963
633.978	0.0534542
634.113	0.0535736
634.248	0.0540508
634.383	0.0541701
634.518	0.0530963
634.653	0.0535736
634.788	0.0527383
634.923	0.0528577
635.058	0.0533349
635.193	0.0539315
635.328	0.0524997
635.463	0.0532156
635.598	0.0533349
635.733	0.0544088
635.868	0.0557213
636.003	0.0536929
636.138	0.0536929
636.273	0.0530963
636.408	0.0539315
636.543	0.0530963
636.678	0.0536929
636.813	0.052977
636.948	0.0535736
637.083	0.0539315
637.218	0.0559599
637.353	0.0534542
637.488	0.0527383
637.623	0.0538122
637.758	0.0540508
637.893	0.0548861
638.028	0.0545281
638.163	0.0542895
638.298	0.0547667
638.433	0.0536929
638.568	0.0532156
638.703	0.0538122
638.838	0.0532156
638.973	0.0539315
639.108	0.0541701
639.243	0.0551247
639.378	0.0523804
639.513	0.0535736
639.648	0.0530963
639.783	0.0539315
639.918	0.0527383
640.053	0.0557213
640.188	0.0553633
640.323	0.0541701
640.458	0.0534542
640.593	0.0550054
640.728	0.0539315
640.863	0.0551247
640.998	0.0546474
641.133	0.0545281
641.268	0.0532156
641.403	0.0548861
641.538	0.0538122
641.673	0.0541701
641.808	0.0550054
641.943	0.0535736
642.078	0.0532156
642.213	0.0547667
642.348	0.0539315
642.483	0.0540508
642.618	0.0548861
642.753	0.0534542
642.888	0.0528577
643.023	0.0553633
643.158	0.0530963
643.293	0.0551247
643.428	0.0540508
643.563	0.0544088
643.698	0.0546474
643.833	0.0524997
643.968	0.0534542
644.103	0.0534542
644.237	0.0530963
644.372	0.0540508
644.507	0.0532156
644.642	0.0553633
644.777	0.0545281
644.912	0.0544088
645.047	0.0538122
645.182	0.0535736
645.317	0.0532156
645.452	0.052619
645.587	0.0542895
645.722	0.0530963
645.857	0.0557213
645.992	0.0532156
646.127	0.0540508
646.262	0.0534542
646.397	0.055244
646.532	0.0541701
646.667	0.0536929
646.802	0.0528577
646.937	0.0536929
647.072	0.0542895
647.207	0.0553633
647.342	0.0558406
647.477	0.0540508
647.612	0.0546474
647.747	0.0551247
647.882	0.0530963
648.017	0.052977
648.152	0.052619
648.287	0.0551247
648.422	0.0541701
648.557	0.0548861
648.692	0.0533349
648.827	0.0539315
648.962	0.0547667
649.097	0.0544088
649.232	0.0545281
649.367	0.0551247
649.502	0.0539315
649.637	0.0538122
649.772	0.0532156
649.906	0.052977
650.041	0.0539315
650.176	0.0546474
650.311	0.0545281
650.446	0.0535736
650.581	0.0539315
650.716	0.0540508
650.851	0.0551247
650.986	0.0546474
651.121	0.0535736
651.256	0.0550054
651.391	0.0536929
651.526	0.0527383
651.661	0.0542895
651.796	0.0517838
651.931	0.0553633
652.066	0.0544088
652.201	0.0544088
652.336	0.052619
652.471	0.0557213
652.606	0.0538122
652.741	0.0561985
652.876	0.0530963
653.011	0.0524997
653.146	0.0545281
653.281	0.0535736
653.415	0.0553633
653.55	0.0536929
653.685	0.0539315
653.82	0.0547667
653.955	0.0554826
654.09	0.0559599
654.225	0.0548861
654.36	0.0545281
654.495	0.0535736
654.63	0.0539315
654.765	0.0541701
654.9	0.0524997
655.035	0.0538122
655.17	0.052619
655.305	0.0551247
655.44	0.0516645
655.575	0.0547667
655.71	0.055602
655.845	0.0544088
655.98	0.0545281
656.115	0.0534542
656.25	0.0538122
656.384	0.0542895
656.519	0.0542895
656.654	0.0534542
656.789	0.0545281
656.924	0.0516645
657.059	0.0540508
657.194	0.0538122
657.329	0.0551247
657.464	0.0542895
657.599	0.0511872
657.734	0.0532156
657.869	0.055602
658.004	0.0533349
658.139	0.0565565
658.274	0.0544088
658.409	0.0546474
658.544	0.0528577
658.679	0.0554826
658.813	0.0539315
658.948	0.0536929
659.083	0.0538122
659.218	0.0539315
659.353	0.055244
659.488	0.0542895
659.623	0.0539315
659.758	0.0540508
659.893	0.052977
660.028	0.0541701
660.163	0.0539315
660.298	0.0538122
660.433	0.0544088
660.568	0.0532156
660.703	0.0547667
660.838	0.0533349
660.972	0.0538122
661.107	0.0542895
661.242	0.0548861
661.377	0.055244
661.512	0.0559599
661.647	0.0542895
661.782	0.0544088
661.917	0.0553633
662.052	0.0544088
662.187	0.0542895
662.322	0.055602
662.457	0.0548861
662.592	0.0528577
662.727	0.0544088
662.862	0.0536929
662.996	0.0536929
663.131	0.0550054
663.266	0.0541701
663.401	0.0533349
663.536	0.0558406
663.671	0.0532156
663.806	0.0536929
663.941	0.0536929
664.076	0.0532156
664.211	0.0541701
664.346	0.0550054
664.481	0.052977
664.616	0.0527383
664.75	0.0524997
664.885	0.0548861
665.02	0.0551247
665.155	0.0540508
665.29	0.0550054
665.425	0.055602
665.56	0.0548861
665.695	0.0547667
665.83	0.0542895
665.965	0.0546474
666.1	0.0515452
666.235	0.0536929
666.37	0.0524997
666.504	0.0550054
666.639	0.0545281
666.774	0.0530963
666.909	0.0542895
667.044	0.0524997
667.179	0.0542895
667.314	0.0550054
667.449	0.0538122
667.584	0.0522611
667.719	0.0539315
667.854	0.0535736
667.989	0.0547667
668.123	0.0557213
668.258	0.0528577
668.393	0.0557213
668.528	0.0528577
668.663	0.0530963
668.798	0.052977
668.933	0.0548861
669.068	0.055602
669.203	0.0545281
669.338	0.052977
669.473	0.0561985
669.607	0.0553633
669.742	0.0535736
669.877	0.0522611
670.012	0.0532156
670.147	0.0523804
670.282	0.0541701
670.417	0.0544088
670.552	0.0547667
670.687	0.0542895
670.822	0.0545281
670.957	0.0527383
671.091	0.0559599
671.226	0.0559599
671.361	0.0538122
671.496	0.0528577
671.631	0.0533349
671.766	0.0527383
671.901	0.0539315
672.036	0.0553633
672.171	0.0548861
672.306	0.0541701
672.44	0.0539315
672.575	0.052619
672.71	0.0533349
672.845	0.0533349
672.98	0.0536929
673.115	0.0536929
673.25	0.0534542
673.385	0.0538122
673.52	0.0536929
673.655	0.0541701
673.789	0.0530963
673.924	0.0548861
674.059	0.0550054
674.194	0.0534542
674.329	0.0524997
674.464	0.0554826
674.599	0.0538122
674.734	0.0546474
674.869	0.0544088
675.003	0.0534542
675.138	0.0559599
675.273	0.0545281
675.408	0.0541701
675.543	0.0536929
675.678	0.0528577
675.813	0.0545281
675.948	0.0547667
676.083	0.0536929
676.217	0.0538122
676.352	0.0539315
676.487	0.0542895
676.622	0.052619
676.757	0.0530963
676.892	0.0546474
677.027	0.0546474
677.162	0.0542895
677.297	0.052977
677.431	0.0536929
677.566	0.0539315
677.701	0.0544088
677.836	0.0534542
677.971	0.0533349
678.106	0.0539315
678.241	0.0557213
678.376	0.0546474
678.511	0.0534542
678.645	0.0541701
678.78	0.0520224
678.915	0.0536929
679.05	0.0564372
679.185	0.0542895
679.32	0.0547667
679.455	0.0538122
679.59	0.0522611
679.724	0.0541701
679.859	0.0540508
679.994	0.0546474
680.129	0.0524997
680.264	0.0541701
680.399	0.0533349
680.534	0.0522611
680.669	0.0536929
680.803	0.0532156
680.938	0.0542895
681.073	0.0524997
681.208	0.0563179
681.343	0.0542895
681.478	0.055244
681.613	0.0527383
681.748	0.0541701
681.882	0.0546474
682.017	0.0538122
682.152	0.0538122
682.287	0.0544088
682.422	0.0546474
682.557	0.0535736
682.692	0.0554826
682.827	0.0533349
682.961	0.0530963
683.096	0.0538122
683.231	0.0530963
683.366	0.0542895
683.501	0.0527383
683.636	0.0528577
683.771	0.0540508
683.906	0.0533349
684.04	0.0533349
684.175	0.0545281
684.31	0.0540508
684.445	0.0533349
684.58	0.0541701
684.715	0.0545281
684.85	0.0542895
684.984	0.055244
685.119	0.0569144
685.254	0.0533349
685.389	0.0546474
685.524	0.0551247
685.659	0.0523804
685.794	0.0532156
685.928	0.0535736
686.063	0.0508293
686.198	0.0540508
686.333	0.0532156
686.468	0.0524997
686.603	0.0547667
686.738	0.0540508
686.872	0.0545281
687.007	0.0524997
687.142	0.0532156
687.277	0.0564372
687.412	0.0539315
687.547	0.055244
687.682	0.052977
687.816	0.052619
687.951	0.0534542
688.086	0.055602
688.221	0.0539315
688.356	0.0553633
688.491	0.0545281
688.626	0.0524997
688.76	0.052619
688.895	0.0535736
689.03	0.0535736
689.165	0.0528577
689.3	0.0545281
689.435	0.0550054
689.57	0.0544088
689.704	0.052619
689.839	0.0540508
689.974	0.0547667
690.109	0.0540508
690.244	0.0523804
690.379	0.0539315
690.513	0.0542895
690.648	0.0564372
690.783	0.0524997
690.918	0.0540508
691.053	0.0530963
691.188	0.0560792
691.323	0.0539315
691.457	0.0528577
691.592	0.0532156
691.727	0.055602
691.862	0.0554826
691.997	0.0530963
692.132	0.0558406
692.266	0.0540508
692.401	0.0546474
692.536	0.0530963
692.671	0.0551247
692.806	0.0540508
692.941	0.0536929
693.075	0.0535736
693.21	0.0544088
693.345	0.0536929
693.48	0.0536929
693.615	0.055244
693.75	0.0554826
693.885	0.0534542
694.019	0.0533349
694.154	0.052977
694.289	0.055602
694.424	0.052977
694.559	0.0553633
694.694	0.0544088
694.828	0.0557213
694.963	0.0538122
695.098	0.0545281
695.233	0.0523804
695.368	0.0532156
695.503	0.0528577
695.637	0.0546474
695.772	0.0545281
695.907	0.0546474
696.042	0.0534542
696.177	0.0536929
696.312	0.0551247
696.446	0.0535736
696.581	0.0517838
696.716	0.0558406
696.851	0.0539315
696.986	0.0533349
697.12	0.0533349
697.255	0.0540508
697.39	0.0528577
697.525	0.0545281
697.66	0.0542895
697.795	0.0541701
697.929	0.0541701
698.064	0.0551247
698.199	0.052977
698.334	0.0546474
698.469	0.0521417
698.604	0.0530963
698.738	0.0520224
698.873	0.0535736
699.008	0.0539315
699.143	0.0540508
699.278	0.0539315
699.412	0.0536929
699.547	0.0539315
699.682	0.0541701
699.817	0.0548861
699.952	0.0541701
700.087	0.0532156
700.221	0.0548861
700.356	0.0522611
700.491	0.0536929
700.626	0.0554826
700.761	0.0560792
700.895	0.0538122
701.03	0.0553633
701.165	0.0533349
701.3	0.0546474
701.435	0.0541701
701.57	0.0542895
701.704	0.0535736
701.839	0.0540508
701.974	0.0546474
702.109	0.0527383
702.244	0.0532156
702.378	0.0548861
702.513	0.0519031
702.648	0.0544088
702.783	0.0510679
702.918	0.0542895
703.052	0.0544088
703.187	0.0541701
703.322	0.0535736
703.457	0.0521417
703.592	0.0536929
703.727	0.0532156
703.861	0.0548861
703.996	0.0540508
704.131	0.0544088
704.266	0.0559599
704.401	0.0541701
704.535	0.0544088
704.67	0.0538122
704.805	0.0559599
704.94	0.0520224
705.075	0.0553633
705.209	0.0567951
705.344	0.0524997
705.479	0.0534542
705.614	0.0551247
705.749	0.0538122
705.883	0.0538122
706.018	0.0538122
706.153	0.0536929
706.288	0.0534542
706.423	0.0534542
706.557	0.0540508
706.692	0.0540508
706.827	0.0550054
706.962	0.0527383
707.097	0.0523804
707.231	0.0551247
707.366	0.0534542
707.501	0.052619
707.636	0.0540508
707.771	0.0541701
707.905	0.0533349
708.04	0.0536929
708.175	0.052619
708.31	0.0550054
708.445	0.0534542
708.579	0.0546474
708.714	0.0550054
708.849	0.0547667
708.984	0.0551247
709.118	0.0534542
709.253	0.0532156
709.388	0.0522611
709.523	0.0540508
709.658	0.0550054
709.792	0.052977
709.927	0.0530963
710.062	0.0541701
710.197	0.0544088
710.332	0.0532156
710.466	0.0533349
710.601	0.0544088
710.736	0.0540508
710.871	0.0544088
711.006	0.0534542
711.14	0.0527383
711.275	0.0548861
711.41	0.0539315
711.545	0.0538122
711.679	0.0536929
711.814	0.0530963
711.949	0.0551247
712.084	0.0553633
712.219	0.0516645
712.353	0.052977
712.488	0.0530963
712.623	0.0536929
712.758	0.0533349
712.892	0.0536929
713.027	0.0536929
713.162	0.0547667
713.297	0.0542895
713.432	0.0535736
713.566	0.0546474
713.701	0.0528577
713.836	0.0528577
713.971	0.0534542
714.105	0.0544088
714.24	0.0545281
714.375	0.055244
714.51	0.055244
714.645	0.0530963
714.779	0.0540508
714.914	0.0539315
715.049	0.0527383
715.184	0.0541701
715.318	0.0534542
715.453	0.0546474
715.588	0.0541701
715.723	0.0536929
715.858	0.0545281
715.992	0.055244
716.127	0.0539315
716.262	0.0546474
716.397	0.0536929
716.531	0.0522611
716.666	0.0532156
716.801	0.0540508
716.936	0.0536929
717.07	0.0553633
717.205	0.0519031
717.34	0.055244
717.475	0.0532156
717.61	0.0534542
717.744	0.0528577
717.879	0.0535736
718.014	0.0551247
718.149	0.0539315
718.283	0.0544088
718.418	0.0542895
718.553	0.0535736
718.688	0.0544088
718.822	0.0539315
718.957	0.0542895
719.092	0.0533349
719.227	0.0533349
719.361	0.0540508
719.496	0.0540508
719.631	0.0541701
719.766	0.052619
719.9	0.0548861
720.035	0.0544088
720.17	0.0559599
720.305	0.0544088
720.44	0.0532156
720.574	0.0538122
720.709	0.0538122
720.844	0.0550054
720.979	0.0542895
721.113	0.0533349
721.248	0.0548861
721.383	0.0541701
721.518	0.0528577
721.652	0.0524997
721.787	0.0535736
721.922	0.0538122
722.057	0.0545281
722.191	0.0541701
722.326	0.0550054
722.461	0.0541701
722.596	0.0541701
722.73	0.0536929
722.865	0.0533349
723	0.0532156
723.135	0.055244
723.269	0.0542895
723.404	0.052619
723.539	0.0528577
723.674	0.0533349
723.808	0.0541701
723.943	0.0544088
724.078	0.0542895
724.213	0.0527383
724.347	0.0535736
724.482	0.0547667
724.617	0.0557213
724.752	0.0546474
724.886	0.0545281
725.021	0.0530963
725.156	0.0534542
725.291	0.0533349
725.425	0.0545281
725.56	0.0545281
725.695	0.0532156
725.829	0.0542895
725.964	0.0536929
726.099	0.0547667
726.234	0.052619
726.368	0.0541701
726.503	0.0541701
726.638	0.0541701
726.773	0.0542895
726.907	0.0538122
727.042	0.0533349
727.177	0.0532156
727.312	0.0542895
727.446	0.0542895
727.581	0.0542895
727.716	0.0534542
727.851	0.0538122
727.985	0.0540508
728.12	0.0538122
728.255	0.0532156
728.389	0.0536929
728.524	0.0536929
728.659	0.0539315
728.794	0.0514258
728.928	0.0539315
729.063	0.0554826
729.198	0.0546474
729.333	0.0554826
729.467	0.0540508
729.602	0.0538122
729.737	0.0533349
729.872	0.0533349
730.006	0.0544088
730.141	0.0553633
730.276	0.0540508
730.41	0.0528577
730.545	0.0540508
730.68	0.0573917
730.815	0.0527383
730.949	0.0548861
731.084	0.0528577
731.219	0.0540508
731.354	0.0521417
731.488	0.0550054
731.623	0.052619
731.758	0.0533349
731.892	0.0545281
732.027	0.055602
732.162	0.0530963
732.297	0.0557213
732.431	0.0544088
732.566	0.0541701
732.701	0.0547667
732.835	0.0534542
732.97	0.052619
733.105	0.0542895
733.24	0.0544088
733.374	0.0533349
733.509	0.0554826
733.644	0.0538122
733.779	0.0532156
733.913	0.0535736
734.048	0.0534542
734.183	0.0542895
734.317	0.0553633
734.452	0.0532156
734.587	0.0535736
734.722	0.0542895
734.856	0.0541701
734.991	0.0540508
735.126	0.0541701
735.26	0.0546474
735.395	0.0528577
735.53	0.0521417
735.665	0.0541701
735.799	0.0540508
735.934	0.0567951
736.069	0.0538122
736.203	0.0522611
736.338	0.0528577
736.473	0.0528577
736.607	0.0540508
736.742	0.0541701
736.877	0.0535736
737.012	0.0551247
737.146	0.0536929
737.281	0.0541701
737.416	0.0540508
737.55	0.0540508
737.685	0.052619
737.82	0.055244
737.955	0.0546474
738.089	0.0522611
738.224	0.0539315
738.359	0.055244
738.493	0.0540508
738.628	0.0541701
738.763	0.0535736
738.897	0.052619
739.032	0.0551247
739.167	0.0535736
739.302	0.0550054
739.436	0.0539315
739.571	0.0530963
739.706	0.0535736
739.84	0.0542895
739.975	0.0535736
740.11	0.0530963
740.244	0.0524997
740.379	0.0548861
740.514	0.0546474
740.649	0.0551247
740.783	0.0539315
740.918	0.0535736
741.053	0.0547667
741.187	0.0540508
741.322	0.0540508
741.457	0.0551247
741.591	0.0541701
741.726	0.052977
741.861	0.055244
741.996	0.0533349
742.13	0.0535736
742.265	0.0538122
742.4	0.0547667
742.534	0.0540508
742.669	0.0539315
742.804	0.0544088
742.938	0.052977
743.073	0.0538122
743.208	0.055244
743.342	0.0541701
743.477	0.0535736
743.612	0.0548861
743.747	0.0554826
743.881	0.0539315
744.016	0.0553633
744.151	0.0530963
744.285	0.0542895
744.42	0.0553633
744.555	0.0544088
744.689	0.0535736
744.824	0.0551247
744.959	0.0539315
745.093	0.0533349
745.228	0.0550054
745.363	0.0539315
745.497	0.0535736
745.632	0.0536929
745.767	0.0553633
745.901	0.0546474
746.036	0.0544088
746.171	0.0535736
746.305	0.0538122
746.44	0.0533349
746.575	0.0546474
746.71	0.0536929
746.844	0.0530963
746.979	0.0542895
747.114	0.0541701
747.248	0.0544088
747.383	0.052977
747.518	0.0538122
747.652	0.0536929
747.787	0.0551247
747.922	0.0545281
748.056	0.0536929
748.191	0.0561985
748.326	0.0528577
748.46	0.0545281
748.595	0.0540508
748.73	0.0551247
748.864	0.0541701
748.999	0.052977
749.134	0.0540508
749.268	0.0524997
749.403	0.0548861
749.538	0.0528577
749.672	0.0539315
749.807	0.0551247
749.942	0.0554826
750.076	0.0514258
750.211	0.0532156
750.346	0.055244
750.48	0.0539315
750.615	0.0548861
750.75	0.0523804
750.884	0.0538122
751.019	0.0553633
751.154	0.0534542
751.288	0.0522611
751.423	0.0545281
751.558	0.052977
751.692	0.0528577
751.827	0.0539315
751.962	0.0544088
752.096	0.052977
752.231	0.0550054
752.366	0.0523804
752.5	0.0530963
752.635	0.0546474
752.77	0.0534542
752.904	0.0540508
753.039	0.052977
753.174	0.0536929
753.308	0.0541701
753.443	0.0550054
753.578	0.0553633
753.712	0.0541701
753.847	0.0554826
753.982	0.0541701
754.116	0.052619
754.251	0.0551247
754.386	0.0544088
754.52	0.0521417
754.655	0.0516645
754.79	0.0542895
754.924	0.055602
755.059	0.0539315
755.194	0.0530963
755.328	0.0539315
755.463	0.0539315
755.597	0.0528577
755.732	0.0542895
755.867	0.0538122
756.001	0.0542895
756.136	0.0542895
756.271	0.0565565
756.405	0.0538122
756.54	0.0545281
756.675	0.0550054
756.809	0.055244
756.944	0.0534542
757.079	0.0546474
757.213	0.0548861
757.348	0.0527383
757.483	0.0522611
757.617	0.0554826
757.752	0.0533349
757.887	0.0542895
758.021	0.0544088
758.156	0.0542895
758.29	0.0524997
758.425	0.0527383
758.56	0.052619
758.694	0.0542895
758.829	0.0538122
758.964	0.0535736
759.098	0.0522611
759.233	0.0536929
759.368	0.0542895
759.502	0.0540508
759.637	0.0535736
759.772	0.0547667
759.906	0.0540508
760.041	0.0539315
