Source: Spectrum Viewer

Chart: Pulse Spectrum

Series: 
Wavelength (nm)	S (a.u.)
617.638	0.0405443
617.773	0.0418314
617.908	0.0417395
618.043	0.0420153
618.178	0.0417395
618.313	0.0427508
618.448	0.0408201
618.583	0.040912
618.718	0.0415556
618.853	0.0413717
618.988	0.0410959
619.123	0.0408201
619.258	0.0412798
619.394	0.0414636
619.529	0.0418314
619.664	0.0414636
619.799	0.0413717
619.934	0.0421072
620.069	0.0413717
620.204	0.0424749
620.339	0.0418314
620.474	0.0415556
620.609	0.0419233
620.744	0.0410959
620.879	0.0421072
621.014	0.0424749
621.149	0.0428427
621.284	0.0418314
621.419	0.0413717
621.554	0.0418314
621.689	0.0403604
621.825	0.0402685
621.96	0.0421072
622.095	0.0412798
622.23	0.0415556
622.365	0.0422911
622.5	0.0410959
622.635	0.0417395
622.77	0.0428427
622.905	0.0422911
623.04	0.0412798
623.175	0.0421991
623.31	0.0412798
623.445	0.0425669
623.58	0.0410959
623.715	0.0408201
623.85	0.0420153
623.985	0.0413717
624.12	0.0414636
624.255	0.0413717
624.39	0.0422911
624.525	0.0416475
624.661	0.0421072
624.796	0.0408201
624.931	0.0421991
625.066	0.0416475
625.201	0.0419233
625.336	0.0426588
625.471	0.0421072
625.606	0.041004
625.741	0.0411878
625.876	0.0418314
626.011	0.0421072
626.146	0.0417395
626.281	0.0415556
626.416	0.0408201
626.551	0.0414636
626.686	0.0431185
626.821	0.0426588
626.956	0.0427508
627.091	0.0420153
627.226	0.0405443
627.361	0.0424749
627.496	0.0420153
627.631	0.0414636
627.766	0.0421991
627.901	0.0419233
628.036	0.0421072
628.171	0.0415556
628.307	0.0413717
628.442	0.0421072
628.577	0.0408201
628.712	0.0418314
628.847	0.0414636
628.982	0.040912
629.117	0.0427508
629.252	0.0416475
629.387	0.0410959
629.522	0.0418314
629.657	0.0422911
629.792	0.0411878
629.927	0.0411878
630.062	0.0413717
630.197	0.0410959
630.332	0.0413717
630.467	0.0411878
630.602	0.040912
630.737	0.0398088
630.872	0.0406362
631.007	0.0406362
631.142	0.0417395
631.277	0.0411878
631.412	0.0424749
631.547	0.0415556
631.682	0.0421991
631.817	0.0414636
631.952	0.042383
632.087	0.0420153
632.222	0.042383
632.357	0.0410959
632.492	0.040912
632.627	0.0429346
632.762	0.0415556
632.897	0.0414636
633.032	0.0403604
633.167	0.0425669
633.302	0.040912
633.437	0.0401765
633.572	0.0407281
633.707	0.0411878
633.842	0.0424749
633.978	0.0429346
634.113	0.0405443
634.248	0.0426588
634.383	0.0432104
634.518	0.040912
634.653	0.0417395
634.788	0.0413717
634.923	0.0422911
635.058	0.0415556
635.193	0.0417395
635.328	0.0411878
635.463	0.0418314
635.598	0.0421072
635.733	0.0404523
635.868	0.0416475
636.003	0.0414636
636.138	0.0421991
636.273	0.0429346
636.408	0.040912
636.543	0.0410959
636.678	0.0411878
636.813	0.0419233
636.948	0.0421072
637.083	0.0432104
637.218	0.0422911
637.353	0.0408201
637.488	0.0402685
637.623	0.040912
637.758	0.0422911
637.893	0.0403604
638.028	0.0424749
638.163	0.0410959
638.298	0.0408201
638.433	0.0422911
638.568	0.0414636
638.703	0.0418314
638.838	0.0412798
638.973	0.0418314
639.108	0.0420153
639.243	0.0424749
639.378	0.0429346
639.513	0.0406362
639.648	0.0413717
639.783	0.040912
639.918	0.0421991
640.053	0.0432104
640.188	0.0419233
640.323	0.0422911
640.458	0.0403604
640.593	0.0415556
640.728	0.0408201
640.863	0.0411878
640.998	0.0418314
641.133	0.0413717
641.268	0.0421991
641.403	0.0421991
641.538	0.0412798
641.673	0.0419233
641.808	0.0411878
641.943	0.0416475
642.078	0.0420153
642.213	0.0418314
642.348	0.0420153
642.483	0.040912
642.618	0.0400846
642.753	0.040912
642.888	0.0418314
643.023	0.0424749
643.158	0.0420153
643.293	0.0421072
643.428	0.041004
643.563	0.0426588
643.698	0.040912
643.833	0.0414636
643.968	0.0421991
644.103	0.0411878
644.237	0.042383
644.372	0.0411878
644.507	0.0418314
644.642	0.0422911
644.777	0.0422911
644.912	0.0426588
645.047	0.0416475
645.182	0.0420153
645.317	0.0427508
645.452	0.0420153
645.587	0.0403604
645.722	0.0424749
645.857	0.0417395
645.992	0.0426588
646.127	0.041004
646.262	0.041004
646.397	0.0417395
646.532	0.0419233
646.667	0.0400846
646.802	0.0417395
646.937	0.0415556
647.072	0.0407281
647.207	0.0419233
647.342	0.0411878
647.477	0.0413717
647.612	0.0407281
647.747	0.0413717
647.882	0.0416475
648.017	0.0416475
648.152	0.0424749
648.287	0.0405443
648.422	0.0421991
648.557	0.0415556
648.692	0.0406362
648.827	0.0421072
648.962	0.0411878
649.097	0.0424749
649.232	0.0426588
649.367	0.0417395
649.502	0.0420153
649.637	0.0414636
649.772	0.0416475
649.906	0.0407281
650.041	0.0413717
650.176	0.0422911
650.311	0.0402685
650.446	0.0427508
650.581	0.0420153
650.716	0.0402685
650.851	0.0421072
650.986	0.0417395
651.121	0.0421991
651.256	0.0413717
651.391	0.0404523
651.526	0.041004
651.661	0.0418314
651.796	0.0405443
651.931	0.042383
652.066	0.041004
652.201	0.0428427
652.336	0.0413717
652.471	0.0413717
652.606	0.0421991
652.741	0.0421072
652.876	0.0410959
653.011	0.0407281
653.146	0.0413717
653.281	0.0415556
653.415	0.0432104
653.55	0.0415556
653.685	0.0418314
653.82	0.0419233
653.955	0.0421072
654.09	0.0428427
654.225	0.0431185
654.36	0.040912
654.495	0.0410959
654.63	0.0417395
654.765	0.040912
654.9	0.0412798
655.035	0.0404523
655.17	0.0422911
655.305	0.0405443
655.44	0.0417395
655.575	0.0405443
655.71	0.0416475
655.845	0.0418314
655.98	0.0417395
656.115	0.0414636
656.25	0.041004
656.384	0.0417395
656.519	0.0404523
656.654	0.0414636
656.789	0.0421991
656.924	0.0407281
657.059	0.0407281
657.194	0.0411878
657.329	0.040912
657.464	0.0420153
657.599	0.0416475
657.734	0.0422911
657.869	0.0419233
658.004	0.0412798
658.139	0.0416475
658.274	0.0413717
658.409	0.0406362
658.544	0.0419233
658.679	0.0419233
658.813	0.0419233
658.948	0.0405443
659.083	0.0406362
659.218	0.0422911
659.353	0.0421072
659.488	0.0425669
659.623	0.0410959
659.758	0.0431185
659.893	0.0418314
660.028	0.0421991
660.163	0.0417395
660.298	0.0417395
660.433	0.0418314
660.568	0.0416475
660.703	0.0418314
660.838	0.0421991
660.972	0.0421072
661.107	0.042383
661.242	0.040912
661.377	0.0416475
661.512	0.0413717
661.647	0.041004
661.782	0.0410959
661.917	0.0418314
662.052	0.0416475
662.187	0.0424749
662.322	0.0410959
662.457	0.0414636
662.592	0.041004
662.727	0.0410959
662.862	0.0417395
662.996	0.042383
663.131	0.0411878
663.266	0.042383
663.401	0.0413717
663.536	0.0421991
663.671	0.0402685
663.806	0.0414636
663.941	0.0410959
664.076	0.0415556
664.211	0.0419233
664.346	0.0412798
664.481	0.0422911
664.616	0.0421072
664.75	0.0410959
664.885	0.0410959
665.02	0.0435782
665.155	0.0433943
665.29	0.0402685
665.425	0.0421072
665.56	0.0415556
665.695	0.0410959
665.83	0.0428427
665.965	0.0413717
666.1	0.0405443
666.235	0.0407281
666.37	0.0415556
666.504	0.0417395
666.639	0.0412798
666.774	0.0408201
666.909	0.0411878
667.044	0.0411878
667.179	0.0408201
667.314	0.0416475
667.449	0.0413717
667.584	0.0412798
667.719	0.0425669
667.854	0.0412798
667.989	0.040912
668.123	0.0421072
668.258	0.0421072
668.393	0.0422911
668.528	0.0410959
668.663	0.0424749
668.798	0.0402685
668.933	0.0414636
669.068	0.0411878
669.203	0.0420153
669.338	0.0424749
669.473	0.0399007
669.607	0.0413717
669.742	0.0414636
669.877	0.0406362
670.012	0.0421072
670.147	0.0414636
670.282	0.0418314
670.417	0.0420153
670.552	0.0419233
670.687	0.0414636
670.822	0.0422911
670.957	0.041004
671.091	0.0419233
671.226	0.0417395
671.361	0.0418314
671.496	0.0422911
671.631	0.0404523
671.766	0.0413717
671.901	0.0401765
672.036	0.0413717
672.171	0.0413717
672.306	0.0419233
672.44	0.0419233
672.575	0.0410959
672.71	0.0414636
672.845	0.0432104
672.98	0.0407281
673.115	0.0416475
673.25	0.0422911
673.385	0.0414636
673.52	0.0406362
673.655	0.042383
673.789	0.0421991
673.924	0.0415556
674.059	0.0421072
674.194	0.0419233
674.329	0.0410959
674.464	0.0412798
674.599	0.0426588
674.734	0.0421991
674.869	0.0418314
675.003	0.0414636
675.138	0.0418314
675.273	0.040912
675.408	0.0426588
675.543	0.0421072
675.678	0.0420153
675.813	0.0415556
675.948	0.041004
676.083	0.0411878
676.217	0.0403604
676.352	0.0413717
676.487	0.0417395
676.622	0.0406362
676.757	0.0413717
676.892	0.0418314
677.027	0.0417395
677.162	0.0425669
677.297	0.0421072
677.431	0.0411878
677.566	0.0410959
677.701	0.0412798
677.836	0.0421991
677.971	0.0417395
678.106	0.0422911
678.241	0.0419233
678.376	0.0424749
678.511	0.0417395
678.645	0.0399926
678.78	0.0408201
678.915	0.0415556
679.05	0.0419233
679.185	0.0419233
679.32	0.0418314
679.455	0.0417395
679.59	0.0421072
679.724	0.0413717
679.859	0.0406362
679.994	0.0420153
680.129	0.0412798
680.264	0.0410959
680.399	0.0414636
680.534	0.0422911
680.669	0.0441298
680.803	0.0408201
680.938	0.0418314
681.073	0.0410959
681.208	0.0417395
681.343	0.0422911
681.478	0.0418314
681.613	0.0415556
681.748	0.0415556
681.882	0.0408201
682.017	0.0407281
682.152	0.0411878
682.287	0.0412798
682.422	0.0414636
682.557	0.0413717
682.692	0.0421072
682.827	0.0415556
682.961	0.0408201
683.096	0.0433943
683.231	0.0418314
683.366	0.0420153
683.501	0.0411878
683.636	0.040912
683.771	0.0406362
683.906	0.0426588
684.04	0.0414636
684.175	0.0411878
684.31	0.0407281
684.445	0.0415556
684.58	0.0407281
684.715	0.0418314
684.85	0.0422911
684.984	0.0421072
685.119	0.0431185
685.254	0.0406362
685.389	0.0428427
685.524	0.041004
685.659	0.0422911
685.794	0.0415556
685.928	0.0406362
686.063	0.0414636
686.198	0.0416475
686.333	0.0421991
686.468	0.0406362
686.603	0.0421072
686.738	0.0424749
686.872	0.0414636
687.007	0.0413717
687.142	0.0418314
687.277	0.0411878
687.412	0.0422911
687.547	0.0407281
687.682	0.0407281
687.816	0.0428427
687.951	0.0416475
688.086	0.040912
688.221	0.0421072
688.356	0.0426588
688.491	0.0403604
688.626	0.0417395
688.76	0.0407281
688.895	0.0416475
689.03	0.0422911
689.165	0.0432104
689.3	0.0415556
689.435	0.0413717
689.57	0.0412798
689.704	0.0416475
689.839	0.0411878
689.974	0.0412798
690.109	0.0407281
690.244	0.0424749
690.379	0.0414636
690.513	0.0418314
690.648	0.0416475
690.783	0.0407281
690.918	0.0410959
691.053	0.0406362
691.188	0.0406362
691.323	0.0418314
691.457	0.0408201
691.592	0.0419233
691.727	0.0413717
691.862	0.0407281
691.997	0.0408201
692.132	0.0420153
692.266	0.0414636
692.401	0.0407281
692.536	0.0412798
692.671	0.0413717
692.806	0.0418314
692.941	0.0432104
693.075	0.0406362
693.21	0.0408201
693.345	0.040912
693.48	0.0414636
693.615	0.0407281
693.75	0.0413717
693.885	0.0414636
694.019	0.0421072
694.154	0.0419233
694.289	0.0422911
694.424	0.0406362
694.559	0.0414636
694.694	0.0413717
694.828	0.0422911
694.963	0.0427508
695.098	0.0420153
695.233	0.0422911
695.368	0.0405443
695.503	0.0407281
695.637	0.0401765
695.772	0.0407281
695.907	0.0424749
696.042	0.0412798
696.177	0.0417395
696.312	0.0420153
696.446	0.0417395
696.581	0.0420153
696.716	0.0416475
696.851	0.040912
696.986	0.0415556
697.12	0.0410959
697.255	0.0424749
697.39	0.0411878
697.525	0.0415556
697.66	0.0412798
697.795	0.0412798
697.929	0.0426588
698.064	0.0430266
698.199	0.0418314
698.334	0.040912
698.469	0.0426588
698.604	0.0414636
698.738	0.0415556
698.873	0.042383
699.008	0.0415556
699.143	0.0413717
699.278	0.0413717
699.412	0.0413717
699.547	0.0417395
699.682	0.0418314
699.817	0.040912
699.952	0.0433943
700.087	0.041004
700.221	0.0425669
700.356	0.042383
700.491	0.0399926
700.626	0.0413717
700.761	0.0416475
700.895	0.0410959
701.03	0.0411878
701.165	0.0424749
701.3	0.040912
701.435	0.0404523
701.57	0.0399007
701.704	0.0401765
701.839	0.0419233
701.974	0.0413717
702.109	0.041004
702.244	0.0413717
702.378	0.0421991
702.513	0.0419233
702.648	0.0416475
702.783	0.0416475
702.918	0.0425669
703.052	0.041004
703.187	0.0415556
703.322	0.0401765
703.457	0.0427508
703.592	0.0419233
703.727	0.0418314
703.861	0.0431185
703.996	0.0411878
704.131	0.0407281
704.266	0.0413717
704.401	0.0415556
704.535	0.041004
704.67	0.0408201
704.805	0.0420153
704.94	0.0414636
705.075	0.0418314
705.209	0.0411878
705.344	0.0417395
705.479	0.0421991
705.614	0.0419233
705.749	0.0418314
705.883	0.0417395
706.018	0.0404523
706.153	0.0413717
706.288	0.0414636
706.423	0.0412798
706.557	0.0431185
706.692	0.0412798
706.827	0.0428427
706.962	0.0424749
707.097	0.0415556
707.231	0.0415556
707.366	0.0414636
707.501	0.0418314
707.636	0.040912
707.771	0.0418314
707.905	0.0424749
708.04	0.0428427
708.175	0.0412798
708.31	0.0411878
708.445	0.0407281
708.579	0.0421072
708.714	0.0419233
708.849	0.0421991
708.984	0.0410959
709.118	0.0407281
709.253	0.0427508
709.388	0.0405443
709.523	0.0417395
709.658	0.0415556
709.792	0.0411878
709.927	0.0421991
710.062	0.0431185
710.197	0.0408201
710.332	0.0412798
710.466	0.041004
710.601	0.0421072
710.736	0.0419233
710.871	0.0417395
711.006	0.0413717
711.14	0.0407281
711.275	0.0406362
711.41	0.0417395
711.545	0.0416475
711.679	0.0411878
711.814	0.0424749
711.949	0.0415556
712.084	0.0419233
712.219	0.0408201
712.353	0.0426588
712.488	0.0419233
712.623	0.0418314
712.758	0.040912
712.892	0.0416475
713.027	0.0415556
713.162	0.040912
713.297	0.040912
713.432	0.0406362
713.566	0.0421991
713.701	0.042383
713.836	0.0420153
713.971	0.0416475
714.105	0.0408201
714.24	0.0412798
714.375	0.0432104
714.51	0.0413717
714.645	0.041004
714.779	0.0424749
714.914	0.0413717
715.049	0.042383
715.184	0.0401765
715.318	0.0420153
715.453	0.0416475
715.588	0.0413717
715.723	0.042383
715.858	0.0413717
715.992	0.0410959
716.127	0.0406362
716.262	0.0411878
716.397	0.0413717
716.531	0.0407281
716.666	0.0413717
716.801	0.0413717
716.936	0.0412798
717.07	0.0406362
717.205	0.0399926
717.34	0.0418314
717.475	0.0411878
717.61	0.0421072
717.744	0.0415556
717.879	0.0421072
718.014	0.0418314
718.149	0.0424749
718.283	0.0420153
718.418	0.0416475
718.553	0.0414636
718.688	0.0413717
718.822	0.0421991
718.957	0.0412798
719.092	0.0413717
719.227	0.0408201
719.361	0.0411878
719.496	0.0416475
719.631	0.041004
719.766	0.0402685
719.9	0.0414636
720.035	0.0406362
720.17	0.0417395
720.305	0.0407281
720.44	0.0418314
720.574	0.0416475
720.709	0.0419233
720.844	0.0421072
720.979	0.0422911
721.113	0.040912
721.248	0.0422911
721.383	0.0421072
721.518	0.0417395
721.652	0.0410959
721.787	0.0420153
721.922	0.0416475
722.057	0.0410959
722.191	0.0419233
722.326	0.0402685
722.461	0.0427508
722.596	0.0421991
722.73	0.040912
722.865	0.0430266
723	0.0417395
723.135	0.0421991
723.269	0.0410959
723.404	0.0420153
723.539	0.0420153
723.674	0.0419233
723.808	0.0414636
723.943	0.0416475
724.078	0.0401765
724.213	0.0419233
724.347	0.0422911
724.482	0.0419233
724.617	0.0429346
724.752	0.0416475
724.886	0.042383
725.021	0.0407281
725.156	0.0416475
725.291	0.0417395
725.425	0.0413717
725.56	0.0427508
725.695	0.0412798
725.829	0.0402685
725.964	0.0411878
726.099	0.0410959
726.234	0.0418314
726.368	0.0418314
726.503	0.0414636
726.638	0.0417395
726.773	0.0415556
726.907	0.0415556
727.042	0.0424749
727.177	0.041004
727.312	0.0416475
727.446	0.0413717
727.581	0.0407281
727.716	0.0412798
727.851	0.0417395
727.985	0.0424749
728.12	0.0417395
728.255	0.0415556
728.389	0.0407281
728.524	0.0417395
728.659	0.0419233
728.794	0.0421072
728.928	0.0414636
729.063	0.0414636
729.198	0.0415556
729.333	0.0415556
729.467	0.0416475
729.602	0.0416475
729.737	0.0415556
729.872	0.0419233
730.006	0.0418314
730.141	0.0411878
730.276	0.0425669
730.41	0.0416475
730.545	0.0402685
730.68	0.0404523
730.815	0.0410959
730.949	0.0427508
731.084	0.0421991
731.219	0.0428427
731.354	0.040912
731.488	0.0424749
731.623	0.0399926
731.758	0.0415556
731.892	0.0412798
732.027	0.0417395
732.162	0.041004
732.297	0.0424749
732.431	0.0414636
732.566	0.0424749
732.701	0.0404523
732.835	0.0415556
732.97	0.0421991
733.105	0.0415556
733.24	0.0432104
733.374	0.0416475
733.509	0.0416475
733.644	0.041004
733.779	0.0411878
733.913	0.0421072
734.048	0.0418314
734.183	0.0401765
734.317	0.0416475
734.452	0.0421072
734.587	0.0424749
734.722	0.0412798
734.856	0.0406362
734.991	0.0414636
735.126	0.0401765
735.26	0.0418314
735.395	0.040912
735.53	0.0417395
735.665	0.0414636
735.799	0.0415556
735.934	0.0421991
736.069	0.0431185
736.203	0.0412798
736.338	0.0415556
736.473	0.0433943
736.607	0.0411878
736.742	0.0403604
736.877	0.0417395
737.012	0.042383
737.146	0.042383
737.281	0.0411878
737.416	0.0419233
737.55	0.0416475
737.685	0.0407281
737.82	0.0417395
737.955	0.0428427
738.089	0.0426588
738.224	0.0421072
738.359	0.0417395
738.493	0.0419233
738.628	0.0405443
738.763	0.0424749
738.897	0.0406362
739.032	0.0408201
739.167	0.0421072
739.302	0.0408201
739.436	0.0415556
739.571	0.0413717
739.706	0.0415556
739.84	0.0427508
739.975	0.0412798
740.11	0.0417395
740.244	0.0415556
740.379	0.0433024
740.514	0.040912
740.649	0.0405443
740.783	0.0402685
740.918	0.0419233
741.053	0.0417395
741.187	0.0412798
741.322	0.0419233
741.457	0.0426588
741.591	0.0416475
741.726	0.0415556
741.861	0.0424749
741.996	0.0426588
742.13	0.0418314
742.265	0.0415556
742.4	0.041004
742.534	0.0420153
742.669	0.0422911
742.804	0.0433024
742.938	0.0429346
743.073	0.0421072
743.208	0.0421991
743.342	0.0405443
743.477	0.0412798
743.612	0.0422911
743.747	0.0406362
743.881	0.0413717
744.016	0.0406362
744.151	0.0420153
744.285	0.0416475
744.42	0.0432104
744.555	0.0413717
744.689	0.0410959
744.824	0.0418314
744.959	0.0414636
745.093	0.0406362
745.228	0.0419233
745.363	0.0420153
745.497	0.0411878
745.632	0.0421072
745.767	0.0420153
745.901	0.0412798
746.036	0.0412798
746.171	0.0410959
746.305	0.0428427
746.44	0.0410959
746.575	0.0415556
746.71	0.0407281
746.844	0.040912
746.979	0.0399926
747.114	0.0419233
747.248	0.0416475
747.383	0.0421072
747.518	0.0414636
747.652	0.0413717
747.787	0.0413717
747.922	0.0406362
748.056	0.0437621
748.191	0.040912
748.326	0.041004
748.46	0.0428427
748.595	0.0421072
748.73	0.0411878
748.864	0.0424749
748.999	0.0416475
749.134	0.0427508
749.268	0.0413717
749.403	0.0406362
749.538	0.040912
749.672	0.0416475
749.807	0.0415556
749.942	0.0413717
750.076	0.0412798
750.211	0.0417395
750.346	0.0420153
750.48	0.041004
750.615	0.0417395
750.75	0.0433024
750.884	0.0425669
751.019	0.0417395
751.154	0.0408201
751.288	0.0411878
751.423	0.0411878
751.558	0.0399007
751.692	0.0420153
751.827	0.0412798
751.962	0.0412798
752.096	0.0420153
752.231	0.0418314
752.366	0.0415556
752.5	0.042383
752.635	0.0417395
752.77	0.0411878
752.904	0.0417395
753.039	0.040912
753.174	0.0421991
753.308	0.0417395
753.443	0.0400846
753.578	0.0415556
753.712	0.0418314
753.847	0.0429346
753.982	0.0411878
754.116	0.0413717
754.251	0.040912
754.386	0.042383
754.52	0.0414636
754.655	0.0413717
754.79	0.0402685
754.924	0.0404523
755.059	0.0415556
755.194	0.0422911
755.328	0.0413717
755.463	0.040912
755.597	0.0415556
755.732	0.0415556
755.867	0.041004
756.001	0.040912
756.136	0.0412798
756.271	0.0419233
756.405	0.0408201
756.54	0.0414636
756.675	0.0399926
756.809	0.0410959
756.944	0.0407281
757.079	0.0421072
757.213	0.0405443
757.348	0.0424749
757.483	0.0420153
757.617	0.0416475
757.752	0.0411878
757.887	0.0417395
758.021	0.0406362
758.156	0.042383
758.29	0.0415556
758.425	0.0413717
758.56	0.041004
758.694	0.0418314
758.829	0.0411878
758.964	0.0415556
759.098	0.0422911
759.233	0.0412798
759.368	0.0419233
759.502	0.0433024
759.637	0.0420153
759.772	0.0406362
759.906	0.042383
760.041	0.0419233
760.175	0.0411878
