Source: Spectrum Viewer

Chart: Pulse Spectrum

Series: 
Wavelength (nm)	S (a.u.)
617.638	0.13811
617.773	0.134451
617.908	0.135976
618.043	0.13628
618.178	0.135671
618.313	0.13689
618.448	0.135976
618.583	0.139024
618.718	0.135061
618.853	0.135366
618.988	0.137805
619.123	0.131707
619.258	0.133537
619.394	0.138415
619.529	0.1375
619.664	0.138415
619.799	0.133841
619.934	0.1375
620.069	0.13689
620.204	0.134146
620.339	0.137195
620.474	0.133841
620.609	0.132317
620.744	0.135061
620.879	0.139939
621.014	0.13872
621.149	0.13689
621.284	0.135976
621.419	0.135976
621.554	0.132012
621.689	0.138415
621.825	0.13628
621.96	0.139939
622.095	0.135976
622.23	0.134146
622.365	0.136585
622.5	0.136585
622.635	0.13811
622.77	0.140244
622.905	0.132317
623.04	0.13811
623.175	0.134451
623.31	0.135976
623.445	0.134451
623.58	0.142073
623.715	0.133537
623.85	0.13872
623.985	0.131402
624.12	0.136585
624.255	0.133537
624.39	0.135061
624.525	0.135671
624.661	0.136585
624.796	0.138415
624.931	0.134451
625.066	0.13689
625.201	0.132622
625.336	0.137195
625.471	0.13872
625.606	0.135671
625.741	0.136585
625.876	0.1375
626.011	0.133232
626.146	0.134756
626.281	0.135976
626.416	0.135366
626.551	0.132317
626.686	0.13689
626.821	0.141159
626.956	0.13689
627.091	0.133537
627.226	0.135061
627.361	0.134756
627.496	0.13872
627.631	0.139024
627.766	0.13872
627.901	0.134451
628.036	0.135061
628.171	0.135061
628.307	0.134451
628.442	0.13628
628.577	0.135061
628.712	0.1375
628.847	0.134146
628.982	0.13628
629.117	0.132927
629.252	0.132927
629.387	0.135976
629.522	0.137195
629.657	0.13872
629.792	0.139329
629.927	0.132317
630.062	0.133232
630.197	0.135061
630.332	0.139329
630.467	0.135671
630.602	0.135061
630.737	0.1375
630.872	0.137805
631.007	0.135366
631.142	0.137195
631.277	0.137195
631.412	0.139634
631.547	0.138415
631.682	0.135061
631.817	0.13811
631.952	0.133232
632.087	0.138415
632.222	0.132317
632.357	0.133537
632.492	0.13689
632.627	0.134146
632.762	0.135366
632.897	0.134146
633.032	0.130183
633.167	0.139024
633.302	0.139329
633.437	0.137805
633.572	0.133537
633.707	0.134451
633.842	0.132927
633.978	0.135366
634.113	0.134146
634.248	0.136585
634.383	0.134146
634.518	0.13689
634.653	0.13872
634.788	0.135366
634.923	0.13628
635.058	0.135671
635.193	0.134756
635.328	0.134756
635.463	0.136585
635.598	0.135061
635.733	0.137805
635.868	0.13872
636.003	0.134756
636.138	0.132927
636.273	0.138415
636.408	0.135976
636.543	0.134451
636.678	0.13811
636.813	0.130793
636.948	0.137805
637.083	0.132927
637.218	0.134146
637.353	0.138415
637.488	0.135366
637.623	0.133841
637.758	0.13872
637.893	0.134756
638.028	0.136585
638.163	0.13628
638.298	0.135061
638.433	0.13628
638.568	0.140549
638.703	0.134756
638.838	0.135976
638.973	0.139634
639.108	0.135976
639.243	0.134451
639.378	0.140244
639.513	0.135366
639.648	0.135061
639.783	0.134451
639.918	0.137805
640.053	0.13872
640.188	0.137805
640.323	0.13628
640.458	0.135061
640.593	0.135671
640.728	0.139329
640.863	0.132927
640.998	0.134756
641.133	0.13628
641.268	0.138415
641.403	0.135976
641.538	0.133537
641.673	0.133841
641.808	0.132012
641.943	0.131098
642.078	0.1375
642.213	0.13811
642.348	0.135976
642.483	0.13628
642.618	0.137195
642.753	0.133841
642.888	0.131402
643.023	0.140854
643.158	0.132622
643.293	0.131402
643.428	0.137195
643.563	0.136585
643.698	0.137805
643.833	0.139329
643.968	0.137805
644.103	0.13689
644.237	0.135061
644.372	0.134146
644.507	0.13872
644.642	0.1375
644.777	0.140244
644.912	0.130183
645.047	0.134146
645.182	0.135366
645.317	0.132012
645.452	0.138415
645.587	0.136585
645.722	0.139024
645.857	0.134756
645.992	0.137805
646.127	0.137805
646.262	0.135671
646.397	0.133537
646.532	0.1375
646.667	0.137195
646.802	0.135976
646.937	0.137805
647.072	0.138415
647.207	0.134146
647.342	0.13628
647.477	0.136585
647.612	0.1375
647.747	0.139329
647.882	0.13628
648.017	0.134451
648.152	0.140549
648.287	0.137805
648.422	0.133841
648.557	0.133537
648.692	0.1375
648.827	0.1375
648.962	0.136585
649.097	0.134146
649.232	0.135976
649.367	0.135366
649.502	0.1375
649.637	0.138415
649.772	0.138415
649.906	0.133841
650.041	0.137805
650.176	0.135671
650.311	0.135976
650.446	0.137195
650.581	0.134451
650.716	0.134146
650.851	0.139024
650.986	0.135366
651.121	0.135976
651.256	0.133232
651.391	0.134451
651.526	0.133537
651.661	0.135671
651.796	0.135061
651.931	0.139634
652.066	0.137805
652.201	0.134756
652.336	0.13811
652.471	0.139024
652.606	0.138415
652.741	0.133537
652.876	0.134756
653.011	0.132927
653.146	0.13811
653.281	0.135671
653.415	0.139634
653.55	0.134451
653.685	0.140854
653.82	0.136585
653.955	0.137805
654.09	0.1375
654.225	0.139024
654.36	0.139939
654.495	0.132622
654.63	0.135976
654.765	0.135976
654.9	0.133537
655.035	0.134146
655.17	0.1375
655.305	0.13811
655.44	0.13689
655.575	0.133232
655.71	0.1375
655.845	0.135976
655.98	0.133537
656.115	0.133232
656.25	0.139634
656.384	0.13689
656.519	0.134451
656.654	0.133537
656.789	0.133841
656.924	0.135976
657.059	0.135061
657.194	0.134756
657.329	0.137195
657.464	0.135366
657.599	0.137805
657.734	0.133537
657.869	0.139329
658.004	0.136585
658.139	0.137805
658.274	0.135061
658.409	0.135061
658.544	0.13872
658.679	0.13689
658.813	0.130793
658.948	0.139024
659.083	0.136585
659.218	0.137805
659.353	0.13811
659.488	0.13628
659.623	0.1375
659.758	0.133841
659.893	0.133537
660.028	0.135671
660.163	0.132622
660.298	0.135671
660.433	0.132622
660.568	0.135671
660.703	0.13872
660.838	0.136585
660.972	0.13628
661.107	0.13628
661.242	0.137805
661.377	0.135671
661.512	0.13628
661.647	0.13689
661.782	0.138415
661.917	0.139024
662.052	0.136585
662.187	0.13689
662.322	0.133841
662.457	0.133537
662.592	0.13628
662.727	0.133537
662.862	0.136585
662.996	0.133841
663.131	0.133537
663.266	0.135976
663.401	0.132317
663.536	0.133841
663.671	0.139634
663.806	0.135061
663.941	0.139024
664.076	0.135976
664.211	0.139024
664.346	0.132622
664.481	0.13811
664.616	0.130488
664.75	0.1375
664.885	0.135976
665.02	0.133537
665.155	0.133537
665.29	0.131402
665.425	0.1375
665.56	0.137805
665.695	0.137195
665.83	0.134146
665.965	0.1375
666.1	0.13628
666.235	0.132927
666.37	0.132317
666.504	0.140244
666.639	0.13872
666.774	0.130183
666.909	0.134146
667.044	0.132927
667.179	0.13872
667.314	0.13689
667.449	0.139939
667.584	0.138415
667.719	0.13872
667.854	0.135976
667.989	0.137805
668.123	0.132622
668.258	0.133232
668.393	0.135976
668.528	0.13628
668.663	0.131098
668.798	0.13628
668.933	0.135061
669.068	0.1375
669.203	0.133232
669.338	0.136585
669.473	0.132927
669.607	0.135061
669.742	0.131707
669.877	0.134756
670.012	0.138415
670.147	0.135976
670.282	0.133841
670.417	0.139634
670.552	0.133841
670.687	0.134756
670.822	0.136585
670.957	0.13872
671.091	0.133841
671.226	0.1375
671.361	0.13811
671.496	0.132317
671.631	0.138415
671.766	0.137195
671.901	0.131707
672.036	0.13872
672.171	0.1375
672.306	0.135671
672.44	0.135671
672.575	0.13689
672.71	0.13628
672.845	0.134146
672.98	0.139329
673.115	0.133537
673.25	0.13628
673.385	0.135061
673.52	0.134451
673.655	0.142378
673.789	0.139024
673.924	0.13628
674.059	0.136585
674.194	0.133232
674.329	0.135976
674.464	0.139024
674.599	0.139634
674.734	0.134756
674.869	0.134756
675.003	0.13628
675.138	0.137195
675.273	0.135366
675.408	0.13628
675.543	0.13811
675.678	0.135061
675.813	0.133537
675.948	0.13689
676.083	0.132317
676.217	0.1375
676.352	0.138415
676.487	0.1375
676.622	0.133841
676.757	0.134146
676.892	0.132317
677.027	0.139329
677.162	0.135366
677.297	0.137805
677.431	0.137195
677.566	0.13811
677.701	0.1375
677.836	0.132927
677.971	0.133232
678.106	0.135061
678.241	0.13811
678.376	0.13872
678.511	0.13811
678.645	0.136585
678.78	0.13689
678.915	0.13628
679.05	0.134451
679.185	0.135366
679.32	0.135061
679.455	0.136585
679.59	0.140549
679.724	0.135976
679.859	0.132622
679.994	0.13628
680.129	0.132622
680.264	0.136585
680.399	0.132012
680.534	0.135976
680.669	0.13689
680.803	0.13689
680.938	0.136585
681.073	0.135671
681.208	0.135366
681.343	0.133537
681.478	0.134756
681.613	0.136585
681.748	0.139329
681.882	0.13628
682.017	0.134756
682.152	0.13872
682.287	0.1375
682.422	0.134451
682.557	0.134146
682.692	0.13689
682.827	0.13689
682.961	0.138415
683.096	0.13689
683.231	0.135366
683.366	0.135671
683.501	0.135671
683.636	0.133537
683.771	0.134756
683.906	0.135976
684.04	0.140549
684.175	0.132317
684.31	0.13689
684.445	0.132317
684.58	0.135061
684.715	0.134146
684.85	0.137805
684.984	0.135366
685.119	0.133841
685.254	0.131402
685.389	0.13689
685.524	0.137805
685.659	0.136585
685.794	0.135061
685.928	0.136585
686.063	0.135671
686.198	0.1375
686.333	0.135671
686.468	0.135671
686.603	0.134146
686.738	0.135976
686.872	0.134146
687.007	0.135671
687.142	0.135061
687.277	0.140549
687.412	0.135976
687.547	0.135366
687.682	0.138415
687.816	0.13811
687.951	0.137195
688.086	0.131098
688.221	0.13628
688.356	0.135366
688.491	0.135061
688.626	0.139634
688.76	0.134451
688.895	0.135061
689.03	0.135976
689.165	0.134451
689.3	0.133537
689.435	0.13811
689.57	0.134756
689.704	0.135976
689.839	0.137805
689.974	0.135976
690.109	0.13628
690.244	0.135976
690.379	0.139329
690.513	0.132622
690.648	0.135671
690.783	0.134756
690.918	0.134756
691.053	0.131402
691.188	0.134146
691.323	0.137805
691.457	0.138415
691.592	0.136585
691.727	0.13689
691.862	0.134451
691.997	0.132927
692.132	0.131402
692.266	0.133841
692.401	0.134756
692.536	0.13811
692.671	0.133232
692.806	0.134451
692.941	0.132927
693.075	0.13872
693.21	0.132317
693.345	0.134451
693.48	0.136585
693.615	0.139634
693.75	0.138415
693.885	0.131402
694.019	0.132622
694.154	0.135671
694.289	0.1375
694.424	0.138415
694.559	0.132927
694.694	0.137195
694.828	0.139329
694.963	0.138415
695.098	0.133841
695.233	0.134756
695.368	0.132622
695.503	0.13872
695.637	0.135976
695.772	0.136585
695.907	0.13628
696.042	0.136585
696.177	0.134756
696.312	0.133841
696.446	0.137195
696.581	0.131707
696.716	0.13628
696.851	0.135366
696.986	0.134756
697.12	0.142988
697.255	0.133841
697.39	0.135061
697.525	0.133537
697.66	0.135976
697.795	0.13811
697.929	0.140549
698.064	0.136585
698.199	0.130793
698.334	0.135671
698.469	0.133537
698.604	0.143293
698.738	0.133841
698.873	0.1375
699.008	0.135061
699.143	0.13811
699.278	0.13628
699.412	0.137805
699.547	0.136585
699.682	0.135061
699.817	0.138415
699.952	0.134756
700.087	0.138415
700.221	0.134146
700.356	0.13811
700.491	0.1375
700.626	0.135671
700.761	0.13872
700.895	0.134451
701.03	0.13628
701.165	0.133537
701.3	0.133841
701.435	0.133841
701.57	0.139024
701.704	0.138415
701.839	0.138415
701.974	0.1375
702.109	0.13689
702.244	0.132317
702.378	0.134451
702.513	0.133232
702.648	0.133841
702.783	0.135061
702.918	0.134756
703.052	0.136585
703.187	0.140244
703.322	0.134451
703.457	0.134146
703.592	0.137195
703.727	0.139329
703.861	0.136585
703.996	0.134756
704.131	0.135671
704.266	0.132927
704.401	0.135061
704.535	0.133537
704.67	0.137195
704.805	0.135976
704.94	0.137805
705.075	0.136585
705.209	0.131402
705.344	0.13689
705.479	0.134756
705.614	0.139329
705.749	0.137805
705.883	0.135976
706.018	0.137805
706.153	0.132622
706.288	0.135976
706.423	0.133232
706.557	0.135061
706.692	0.135976
706.827	0.137195
706.962	0.132622
707.097	0.135976
707.231	0.136585
707.366	0.136585
707.501	0.142988
707.636	0.138415
707.771	0.139329
707.905	0.141463
708.04	0.136585
708.175	0.133537
708.31	0.140244
708.445	0.133841
708.579	0.1375
708.714	0.135671
708.849	0.132622
708.984	0.137805
709.118	0.133841
709.253	0.132927
709.388	0.138415
709.523	0.1375
709.658	0.13628
709.792	0.13628
709.927	0.134146
710.062	0.131098
710.197	0.133841
710.332	0.133232
710.466	0.135061
710.601	0.13689
710.736	0.135061
710.871	0.139024
711.006	0.136585
711.14	0.134756
711.275	0.135366
711.41	0.139024
711.545	0.134756
711.679	0.135976
711.814	0.140244
711.949	0.141159
712.084	0.139634
712.219	0.136585
712.353	0.134756
712.488	0.134756
712.623	0.13689
712.758	0.137195
712.892	0.132317
713.027	0.139939
713.162	0.139939
713.297	0.131402
713.432	0.131098
713.566	0.137805
713.701	0.139634
713.836	0.135671
713.971	0.1375
714.105	0.135671
714.24	0.131402
714.375	0.135061
714.51	0.135061
714.645	0.135976
714.779	0.13811
714.914	0.139634
715.049	0.135366
715.184	0.135671
715.318	0.135976
715.453	0.13689
715.588	0.134451
715.723	0.139634
715.858	0.135671
715.992	0.133232
716.127	0.133841
716.262	0.137805
716.397	0.135671
716.531	0.134451
716.666	0.135671
716.801	0.133841
716.936	0.13628
717.07	0.136585
717.205	0.135976
717.34	0.130793
717.475	0.13628
717.61	0.132317
717.744	0.139329
717.879	0.13628
718.014	0.136585
718.149	0.135061
718.283	0.137195
718.418	0.13811
718.553	0.135976
718.688	0.1375
718.822	0.136585
718.957	0.13689
719.092	0.135671
719.227	0.135671
719.361	0.13872
719.496	0.136585
719.631	0.139634
719.766	0.131707
719.9	0.133232
720.035	0.135366
720.17	0.13628
720.305	0.130793
720.44	0.13689
720.574	0.132317
720.709	0.135976
720.844	0.135976
720.979	0.1375
721.113	0.135671
721.248	0.135976
721.383	0.13872
721.518	0.139024
721.652	0.13872
721.787	0.136585
721.922	0.1375
722.057	0.133841
722.191	0.139329
722.326	0.132317
722.461	0.133537
722.596	0.135366
722.73	0.13628
722.865	0.138415
723	0.134146
723.135	0.138415
723.269	0.135976
723.404	0.134146
723.539	0.133841
723.674	0.136585
723.808	0.134451
723.943	0.1375
724.078	0.132622
724.213	0.137805
724.347	0.133537
724.482	0.135671
724.617	0.138415
724.752	0.135976
724.886	0.132622
725.021	0.138415
725.156	0.139024
725.291	0.135976
725.425	0.133537
725.56	0.133537
725.695	0.13872
725.829	0.139634
725.964	0.139634
726.099	0.13872
726.234	0.134146
726.368	0.137805
726.503	0.133841
726.638	0.1375
726.773	0.136585
726.907	0.134146
727.042	0.13628
727.177	0.133537
727.312	0.13872
727.446	0.133841
727.581	0.13689
727.716	0.137195
727.851	0.132622
727.985	0.135061
728.12	0.135061
728.255	0.140854
728.389	0.131707
728.524	0.140244
728.659	0.1375
728.794	0.130488
728.928	0.132927
729.063	0.1375
729.198	0.135671
729.333	0.136585
729.467	0.134146
729.602	0.137195
729.737	0.137195
729.872	0.135366
730.006	0.134146
730.141	0.137195
730.276	0.139024
730.41	0.137195
730.545	0.131098
730.68	0.134756
730.815	0.133841
730.949	0.135976
731.084	0.134146
731.219	0.141159
731.354	0.133537
731.488	0.133537
731.623	0.13689
731.758	0.133232
731.892	0.1375
732.027	0.135976
732.162	0.130488
732.297	0.135976
732.431	0.135061
732.566	0.135671
732.701	0.135366
732.835	0.134756
732.97	0.132012
733.105	0.135061
733.24	0.13872
733.374	0.137195
733.509	0.140854
733.644	0.1375
733.779	0.133841
733.913	0.13872
734.048	0.13689
734.183	0.136585
734.317	0.137195
734.452	0.134756
734.587	0.136585
734.722	0.135976
734.856	0.133537
734.991	0.139024
735.126	0.139024
735.26	0.135061
735.395	0.138415
735.53	0.1375
735.665	0.130488
735.799	0.135671
735.934	0.132317
736.069	0.135976
736.203	0.133841
736.338	0.137805
736.473	0.135671
736.607	0.132927
736.742	0.13811
736.877	0.132317
737.012	0.13872
737.146	0.135061
737.281	0.135671
737.416	0.139634
737.55	0.134451
737.685	0.13628
737.82	0.133841
737.955	0.132622
738.089	0.135976
738.224	0.133232
738.359	0.137195
738.493	0.13811
738.628	0.137805
738.763	0.135061
738.897	0.136585
739.032	0.13689
739.167	0.133537
739.302	0.13811
739.436	0.137805
739.571	0.133232
739.706	0.132317
739.84	0.137195
739.975	0.135671
740.11	0.136585
740.244	0.132927
740.379	0.13628
740.514	0.133841
740.649	0.138415
740.783	0.130793
740.918	0.133232
741.053	0.137805
741.187	0.13811
741.322	0.135671
741.457	0.136585
741.591	0.137195
741.726	0.133537
741.861	0.13872
741.996	0.134146
742.13	0.133232
742.265	0.137805
742.4	0.13628
742.534	0.131707
742.669	0.132012
742.804	0.130488
742.938	0.135061
743.073	0.135061
743.208	0.131402
743.342	0.137805
743.477	0.137805
743.612	0.13628
743.747	0.133232
743.881	0.135976
744.016	0.132622
744.151	0.133537
744.285	0.135061
744.42	0.135366
744.555	0.1375
744.689	0.137195
744.824	0.13811
744.959	0.137805
745.093	0.135061
745.228	0.135061
745.363	0.137805
745.497	0.140549
745.632	0.137805
745.767	0.134756
745.901	0.134756
746.036	0.135976
746.171	0.132622
746.305	0.135061
746.44	0.139329
746.575	0.139024
746.71	0.13811
746.844	0.134756
746.979	0.136585
747.114	0.132927
747.248	0.136585
747.383	0.139024
747.518	0.133841
747.652	0.13811
747.787	0.134146
747.922	0.13628
748.056	0.132317
748.191	0.135366
748.326	0.1375
748.46	0.1375
748.595	0.133232
748.73	0.135366
748.864	0.132927
748.999	0.135366
749.134	0.130183
749.268	0.13811
749.403	0.134146
749.538	0.133232
749.672	0.13689
749.807	0.13689
749.942	0.134756
750.076	0.135366
750.211	0.129878
750.346	0.133537
750.48	0.137195
750.615	0.132927
750.75	0.132622
750.884	0.135976
751.019	0.13872
751.154	0.13689
751.288	0.135976
751.423	0.131707
751.558	0.138415
751.692	0.137805
751.827	0.13689
751.962	0.135366
752.096	0.1375
752.231	0.13811
752.366	0.134451
752.5	0.1375
752.635	0.13811
752.77	0.133537
752.904	0.138415
753.039	0.137805
753.174	0.133232
753.308	0.135976
753.443	0.135061
753.578	0.13628
753.712	0.139634
753.847	0.134146
753.982	0.135061
754.116	0.132622
754.251	0.132927
754.386	0.135366
754.52	0.13689
754.655	0.135671
754.79	0.13689
754.924	0.140549
755.059	0.133841
755.194	0.1375
755.328	0.138415
755.463	0.135976
755.597	0.13689
755.732	0.13689
755.867	0.135366
756.001	0.13628
756.136	0.130793
756.271	0.13628
756.405	0.135061
756.54	0.131098
756.675	0.139939
756.809	0.133841
756.944	0.135976
757.079	0.135061
757.213	0.135366
757.348	0.137195
757.483	0.137805
757.617	0.13689
757.752	0.134451
757.887	0.137805
758.021	0.1375
758.156	0.13628
758.29	0.130183
758.425	0.136585
758.56	0.135671
758.694	0.137805
758.829	0.135366
758.964	0.134756
759.098	0.140244
759.233	0.135976
759.368	0.132927
759.502	0.134756
759.637	0.13628
759.772	0.134146
759.906	0.132012
760.041	0.132622
760.175	0.139024
760.31	0.135366
760.445	0.136585
760.579	0.134146
760.714	0.1375
760.849	0.136585
760.983	0.136585
761.118	0.137195
761.253	0.135671
761.387	0.135671
761.522	0.133232
761.656	0.135976
761.791	0.135366
761.926	0.13872
762.06	0.133232
762.195	0.135976
762.33	0.134146
762.464	0.137195
762.599	0.137805
762.733	0.133537
762.868	0.13811
763.003	0.133841
763.137	0.135671
763.272	0.135976
763.407	0.132927
763.541	0.13628
763.676	0.137195
763.811	0.138415
763.945	0.133232
764.08	0.132927
764.214	0.136585
764.349	0.137195
764.484	0.137805
764.618	0.139024
764.753	0.134146
764.888	0.13628
765.022	0.13628
765.157	0.134146
765.291	0.134451
765.426	0.130488
765.561	0.134146
765.695	0.132012
765.83	0.132927
765.965	0.133537
766.099	0.135671
766.234	0.135366
766.368	0.132927
766.503	0.1375
766.638	0.135671
766.772	0.132927
766.907	0.135976
767.041	0.137195
767.176	0.136585
767.311	0.1375
767.445	0.132622
767.58	0.132927
767.715	0.131098
767.849	0.134756
767.984	0.137195
768.118	0.13689
768.253	0.137805
768.388	0.13689
768.522	0.134451
768.657	0.133537
768.791	0.134146
768.926	0.139329
769.061	0.134146
769.195	0.133232
769.33	0.134756
769.465	0.135061
769.599	0.13628
