Source: Spectrum Viewer

Chart: Pulse Spectrum

Series: 
Wavelength (nm)	S (a.u.)
617.638	0.054407
617.773	0.0535606
617.908	0.053077
618.043	0.054407
618.178	0.054407
618.313	0.0548906
618.448	0.0559787
618.583	0.0533188
618.718	0.054407
618.853	0.0554951
618.988	0.0550115
619.123	0.0534397
619.258	0.0552533
619.394	0.054407
619.529	0.0541652
619.664	0.0554951
619.799	0.0531979
619.934	0.0551324
620.069	0.054407
620.204	0.0528352
620.339	0.054407
620.474	0.0535606
620.609	0.055616
620.744	0.0535606
620.879	0.0536815
621.014	0.0550115
621.149	0.0540443
621.284	0.0531979
621.419	0.0536815
621.554	0.0554951
621.689	0.0541652
621.825	0.0538024
621.96	0.0551324
622.095	0.0554951
622.23	0.0538024
622.365	0.0541652
622.5	0.0536815
622.635	0.0548906
622.77	0.0551324
622.905	0.0547697
623.04	0.0541652
623.175	0.054407
623.31	0.0546488
623.445	0.0540443
623.58	0.0542861
623.715	0.0534397
623.85	0.054407
623.985	0.0540443
624.12	0.054407
624.255	0.0525934
624.39	0.055616
624.525	0.0550115
624.661	0.055616
624.796	0.0535606
624.931	0.0551324
625.066	0.0545279
625.201	0.0552533
625.336	0.0542861
625.471	0.0558578
625.606	0.0535606
625.741	0.0534397
625.876	0.0550115
626.011	0.0554951
626.146	0.0545279
626.281	0.0551324
626.416	0.0539233
626.551	0.0538024
626.686	0.053077
626.821	0.0538024
626.956	0.054407
627.091	0.0552533
627.226	0.0550115
627.361	0.0550115
627.496	0.0547697
627.631	0.0560996
627.766	0.0550115
627.901	0.0554951
628.036	0.0552533
628.171	0.0528352
628.307	0.054407
628.442	0.0558578
628.577	0.0541652
628.712	0.0545279
628.847	0.0554951
628.982	0.0552533
629.117	0.0527143
629.252	0.0554951
629.387	0.0525934
629.522	0.0538024
629.657	0.055616
629.792	0.0534397
629.927	0.0553742
630.062	0.0548906
630.197	0.054407
630.332	0.0553742
630.467	0.0547697
630.602	0.0546488
630.737	0.0545279
630.872	0.0559787
631.007	0.0541652
631.142	0.0553742
631.277	0.0531979
631.412	0.0547697
631.547	0.0542861
631.682	0.0525934
631.817	0.054407
631.952	0.0531979
632.087	0.0533188
632.222	0.0576714
632.357	0.0558578
632.492	0.0533188
632.627	0.0564623
632.762	0.0540443
632.897	0.0554951
633.032	0.0527143
633.167	0.0546488
633.302	0.054407
633.437	0.0541652
633.572	0.0547697
633.707	0.0548906
633.842	0.0545279
633.978	0.054407
634.113	0.0535606
634.248	0.053077
634.383	0.0541652
634.518	0.0539233
634.653	0.0548906
634.788	0.0536815
634.923	0.0554951
635.058	0.0541652
635.193	0.0554951
635.328	0.0542861
635.463	0.0547697
635.598	0.0548906
635.733	0.0547697
635.868	0.0542861
636.003	0.0545279
636.138	0.0558578
636.273	0.0545279
636.408	0.0542861
636.543	0.0528352
636.678	0.0539233
636.813	0.0554951
636.948	0.0535606
637.083	0.0559787
637.218	0.0548906
637.353	0.0539233
637.488	0.0533188
637.623	0.0541652
637.758	0.0548906
637.893	0.0547697
638.028	0.0542861
638.163	0.0534397
638.298	0.0560996
638.433	0.0539233
638.568	0.0560996
638.703	0.0541652
638.838	0.0536815
638.973	0.0547697
639.108	0.0558578
639.243	0.0552533
639.378	0.0564623
639.513	0.0539233
639.648	0.0548906
639.783	0.0552533
639.918	0.0540443
640.053	0.0553742
640.188	0.0539233
640.323	0.0548906
640.458	0.0538024
640.593	0.0565832
640.728	0.0551324
640.863	0.0545279
640.998	0.0563414
641.133	0.0548906
641.268	0.0560996
641.403	0.0546488
641.538	0.0539233
641.673	0.0536815
641.808	0.0538024
641.943	0.0554951
642.078	0.0538024
642.213	0.0546488
642.348	0.0542861
642.483	0.0533188
642.618	0.0536815
642.753	0.0550115
642.888	0.0547697
643.023	0.0542861
643.158	0.0547697
643.293	0.0558578
643.428	0.0554951
643.563	0.0559787
643.698	0.054407
643.833	0.0547697
643.968	0.0564623
644.103	0.0539233
644.237	0.0552533
644.372	0.055616
644.507	0.0570669
644.642	0.0551324
644.777	0.0538024
644.912	0.0553742
645.047	0.0525934
645.182	0.0533188
645.317	0.0548906
645.452	0.0551324
645.587	0.0546488
645.722	0.0548906
645.857	0.0539233
645.992	0.054407
646.127	0.0550115
646.262	0.0568251
646.397	0.0541652
646.532	0.0546488
646.667	0.0552533
646.802	0.0538024
646.937	0.0554951
647.072	0.0545279
647.207	0.0548906
647.342	0.0553742
647.477	0.0531979
647.612	0.0536815
647.747	0.0547697
647.882	0.0562205
648.017	0.0541652
648.152	0.0560996
648.287	0.0541652
648.422	0.0551324
648.557	0.0559787
648.692	0.0557369
648.827	0.0550115
648.962	0.0558578
649.097	0.0538024
649.232	0.0540443
649.367	0.0539233
649.502	0.054407
649.637	0.055616
649.772	0.0550115
649.906	0.0557369
650.041	0.0571878
650.176	0.0542861
650.311	0.0524725
650.446	0.0545279
650.581	0.0550115
650.716	0.0547697
650.851	0.0542861
650.986	0.0529561
651.121	0.0545279
651.256	0.0542861
651.391	0.0541652
651.526	0.0548906
651.661	0.0550115
651.796	0.053077
651.931	0.0536815
652.066	0.0559787
652.201	0.0539233
652.336	0.0540443
652.471	0.0536815
652.606	0.054407
652.741	0.0552533
652.876	0.0542861
653.011	0.0550115
653.146	0.0546488
653.281	0.0548906
653.415	0.0545279
653.55	0.0558578
653.685	0.0562205
653.82	0.0565832
653.955	0.0534397
654.09	0.0554951
654.225	0.0545279
654.36	0.0545279
654.495	0.054407
654.63	0.0545279
654.765	0.0548906
654.9	0.0570669
655.035	0.0541652
655.17	0.0552533
655.305	0.0546488
655.44	0.0534397
655.575	0.0531979
655.71	0.0547697
655.845	0.0545279
655.98	0.0546488
656.115	0.0542861
656.25	0.0552533
656.384	0.0540443
656.519	0.0539233
656.654	0.0550115
656.789	0.0535606
656.924	0.0540443
657.059	0.0548906
657.194	0.0542861
657.329	0.0539233
657.464	0.0565832
657.599	0.0536815
657.734	0.0539233
657.869	0.0547697
658.004	0.0552533
658.139	0.054407
658.274	0.0545279
658.409	0.0554951
658.544	0.0541652
658.679	0.0550115
658.813	0.0546488
658.948	0.0548906
659.083	0.0557369
659.218	0.0535606
659.353	0.0553742
659.488	0.0553742
659.623	0.054407
659.758	0.0538024
659.893	0.0528352
660.028	0.0539233
660.163	0.0548906
660.298	0.0563414
660.433	0.0542861
660.568	0.0542861
660.703	0.0550115
660.838	0.0534397
660.972	0.0550115
661.107	0.0550115
661.242	0.0546488
661.377	0.0552533
661.512	0.053077
661.647	0.0527143
661.782	0.0539233
661.917	0.0539233
662.052	0.0560996
662.187	0.0562205
662.322	0.0565832
662.457	0.0558578
662.592	0.0545279
662.727	0.0548906
662.862	0.0559787
662.996	0.0547697
663.131	0.0558578
663.266	0.0548906
663.401	0.0550115
663.536	0.0536815
663.671	0.0533188
663.806	0.0533188
663.941	0.0541652
664.076	0.0548906
664.211	0.0558578
664.346	0.0539233
664.481	0.0539233
664.616	0.0546488
664.75	0.0547697
664.885	0.0553742
665.02	0.0546488
665.155	0.0540443
665.29	0.0540443
665.425	0.0539233
665.56	0.0550115
665.695	0.0529561
665.83	0.0550115
665.965	0.0540443
666.1	0.0548906
666.235	0.0528352
666.37	0.0525934
666.504	0.0554951
666.639	0.054407
666.774	0.0545279
666.909	0.0545279
667.044	0.0557369
667.179	0.0533188
667.314	0.0554951
667.449	0.0560996
667.584	0.0546488
667.719	0.0542861
667.854	0.0541652
667.989	0.056946
668.123	0.0557369
668.258	0.0541652
668.393	0.0546488
668.528	0.0545279
668.663	0.0551324
668.798	0.0553742
668.933	0.0560996
669.068	0.0545279
669.203	0.0558578
669.338	0.053077
669.473	0.0548906
669.607	0.054407
669.742	0.0547697
669.877	0.0551324
670.012	0.0536815
670.147	0.0552533
670.282	0.0539233
670.417	0.0512635
670.552	0.0547697
670.687	0.0554951
670.822	0.0541652
670.957	0.0550115
671.091	0.0545279
671.226	0.0531979
671.361	0.0547697
671.496	0.054407
671.631	0.0558578
671.766	0.054407
671.901	0.0550115
672.036	0.0545279
672.171	0.056946
672.306	0.0557369
672.44	0.0531979
672.575	0.0539233
672.71	0.0540443
672.845	0.0553742
672.98	0.0550115
673.115	0.0554951
673.25	0.053077
673.385	0.0553742
673.52	0.0551324
673.655	0.0524725
673.789	0.0552533
673.924	0.0536815
674.059	0.0554951
674.194	0.0523516
674.329	0.0557369
674.464	0.0546488
674.599	0.0542861
674.734	0.0538024
674.869	0.0562205
675.003	0.0542861
675.138	0.0552533
675.273	0.0541652
675.408	0.0545279
675.543	0.0546488
675.678	0.0525934
675.813	0.0552533
675.948	0.0563414
676.083	0.0559787
676.217	0.0541652
676.352	0.0527143
676.487	0.0548906
676.622	0.0562205
676.757	0.0531979
676.892	0.0548906
677.027	0.0541652
677.162	0.0541652
677.297	0.0552533
677.431	0.0539233
677.566	0.0562205
677.701	0.0546488
677.836	0.0536815
677.971	0.0542861
678.106	0.0545279
678.241	0.0534397
678.376	0.0542861
678.511	0.054407
678.645	0.0540443
678.78	0.0547697
678.915	0.0545279
679.05	0.0540443
679.185	0.054407
679.32	0.0551324
679.455	0.0546488
679.59	0.0525934
679.724	0.0547697
679.859	0.0538024
679.994	0.0552533
680.129	0.0546488
680.264	0.0541652
680.399	0.0535606
680.534	0.0546488
680.669	0.0573087
680.803	0.0552533
680.938	0.0550115
681.073	0.0554951
681.208	0.0546488
681.343	0.0547697
681.478	0.0539233
681.613	0.0540443
681.748	0.0563414
681.882	0.0546488
682.017	0.0533188
682.152	0.0559787
682.287	0.0536815
682.422	0.055616
682.557	0.0551324
682.692	0.0519889
682.827	0.0546488
682.961	0.0540443
683.096	0.054407
683.231	0.0564623
683.366	0.0524725
683.501	0.0557369
683.636	0.0535606
683.771	0.0548906
683.906	0.0539233
684.04	0.0553742
684.175	0.0531979
684.31	0.0542861
684.445	0.0540443
684.58	0.0539233
684.715	0.0533188
684.85	0.0570669
684.984	0.0548906
685.119	0.0535606
685.254	0.0557369
685.389	0.0554951
685.524	0.0534397
685.659	0.0553742
685.794	0.0554951
685.928	0.0552533
686.063	0.0542861
686.198	0.0542861
686.333	0.054407
686.468	0.0542861
686.603	0.0550115
686.738	0.0554951
686.872	0.0551324
687.007	0.0540443
687.142	0.0536815
687.277	0.0546488
687.412	0.0542861
687.547	0.0550115
687.682	0.054407
687.816	0.0534397
687.951	0.0531979
688.086	0.0547697
688.221	0.0535606
688.356	0.0551324
688.491	0.0568251
688.626	0.0535606
688.76	0.0550115
688.895	0.0538024
689.03	0.0539233
689.165	0.0539233
689.3	0.0548906
689.435	0.0535606
689.57	0.0538024
689.704	0.0541652
689.839	0.055616
689.974	0.054407
690.109	0.0553742
690.244	0.0542861
690.379	0.0546488
690.513	0.0522307
690.648	0.0546488
690.783	0.0550115
690.918	0.0551324
691.053	0.0553742
691.188	0.0547697
691.323	0.0557369
691.457	0.0550115
691.592	0.0553742
691.727	0.0531979
691.862	0.0550115
691.997	0.0547697
692.132	0.0552533
692.266	0.0548906
692.401	0.0547697
692.536	0.0535606
692.671	0.0562205
692.806	0.0525934
692.941	0.0535606
693.075	0.0550115
693.21	0.0539233
693.345	0.0542861
693.48	0.054407
693.615	0.0542861
693.75	0.0531979
693.885	0.0554951
694.019	0.0558578
694.154	0.0553742
694.289	0.0550115
694.424	0.0538024
694.559	0.0539233
694.694	0.054407
694.828	0.0545279
694.963	0.0535606
695.098	0.0522307
695.233	0.0551324
695.368	0.0545279
695.503	0.0529561
695.637	0.0562205
695.772	0.0547697
695.907	0.0539233
696.042	0.0558578
696.177	0.053077
696.312	0.054407
696.446	0.0536815
696.581	0.0540443
696.716	0.0538024
696.851	0.0542861
696.986	0.0546488
697.12	0.0539233
697.255	0.0534397
697.39	0.0531979
697.525	0.054407
697.66	0.0538024
697.795	0.0552533
697.929	0.0539233
698.064	0.0550115
698.199	0.0567041
698.334	0.0534397
698.469	0.0528352
698.604	0.0567041
698.738	0.0531979
698.873	0.0548906
699.008	0.0540443
699.143	0.0540443
699.278	0.0552533
699.412	0.0551324
699.547	0.0548906
699.682	0.0547697
699.817	0.0553742
699.952	0.0552533
700.087	0.0552533
700.221	0.0559787
700.356	0.0546488
700.491	0.0535606
700.626	0.0548906
700.761	0.0540443
700.895	0.054407
701.03	0.0528352
701.165	0.0539233
701.3	0.0557369
701.435	0.0567041
701.57	0.0534397
701.704	0.0542861
701.839	0.0529561
701.974	0.0553742
702.109	0.0541652
702.244	0.0558578
702.378	0.0567041
702.513	0.0546488
702.648	0.0560996
702.783	0.0525934
702.918	0.0541652
703.052	0.0553742
703.187	0.0558578
703.322	0.0545279
703.457	0.0541652
703.592	0.0545279
703.727	0.0565832
703.861	0.0554951
703.996	0.055616
704.131	0.0552533
704.266	0.0547697
704.401	0.0550115
704.535	0.0542861
704.67	0.0542861
704.805	0.0535606
704.94	0.0553742
705.075	0.0546488
705.209	0.0551324
705.344	0.0535606
705.479	0.0552533
705.614	0.0557369
705.749	0.054407
705.883	0.0546488
706.018	0.0546488
706.153	0.0550115
706.288	0.0553742
706.423	0.0547697
706.557	0.0542861
706.692	0.0536815
706.827	0.0540443
706.962	0.0548906
707.097	0.0546488
707.231	0.054407
707.366	0.0557369
707.501	0.0553742
707.636	0.0562205
707.771	0.0540443
707.905	0.0529561
708.04	0.0540443
708.175	0.0547697
708.31	0.0548906
708.445	0.0540443
708.579	0.0553742
708.714	0.0536815
708.849	0.0547697
708.984	0.0539233
709.118	0.0542861
709.253	0.0546488
709.388	0.0551324
709.523	0.0541652
709.658	0.0548906
709.792	0.0542861
709.927	0.054407
710.062	0.0538024
710.197	0.0546488
710.332	0.0550115
710.466	0.0560996
710.601	0.0522307
710.736	0.0545279
710.871	0.054407
711.006	0.0541652
711.14	0.0539233
711.275	0.0541652
711.41	0.055616
711.545	0.0534397
711.679	0.0534397
711.814	0.0538024
711.949	0.0550115
712.084	0.0547697
712.219	0.0552533
712.353	0.0553742
712.488	0.0539233
712.623	0.0538024
712.758	0.0550115
712.892	0.0552533
713.027	0.0539233
713.162	0.0542861
713.297	0.0538024
713.432	0.0542861
713.566	0.0552533
713.701	0.0542861
713.836	0.0564623
713.971	0.0538024
714.105	0.0539233
714.24	0.054407
714.375	0.0539233
714.51	0.0545279
714.645	0.0548906
714.779	0.0546488
714.914	0.0535606
715.049	0.0548906
715.184	0.0571878
715.318	0.0536815
715.453	0.0547697
715.588	0.0564623
715.723	0.0546488
715.858	0.0548906
715.992	0.0541652
716.127	0.0531979
716.262	0.0540443
716.397	0.0531979
716.531	0.0551324
716.666	0.0536815
716.801	0.0545279
716.936	0.0552533
717.07	0.0547697
717.205	0.0545279
717.34	0.0547697
717.475	0.0552533
717.61	0.0563414
717.744	0.0531979
717.879	0.0550115
718.014	0.0546488
718.149	0.0540443
718.283	0.0539233
718.418	0.0551324
718.553	0.0562205
718.688	0.0557369
718.822	0.054407
718.957	0.0550115
719.092	0.0547697
719.227	0.0548906
719.361	0.0547697
719.496	0.0554951
719.631	0.0557369
719.766	0.0533188
719.9	0.0540443
720.035	0.0541652
720.17	0.0554951
720.305	0.0540443
720.44	0.0528352
720.574	0.0552533
720.709	0.0548906
720.844	0.0551324
720.979	0.0550115
721.113	0.0545279
721.248	0.0548906
721.383	0.0548906
721.518	0.0563414
721.652	0.0542861
721.787	0.0535606
721.922	0.0548906
722.057	0.054407
722.191	0.0550115
722.326	0.0541652
722.461	0.0548906
722.596	0.0542861
722.73	0.054407
722.865	0.0548906
723	0.0536815
723.135	0.0542861
723.269	0.0534397
723.404	0.0552533
723.539	0.055616
723.674	0.0545279
723.808	0.0563414
723.943	0.0551324
724.078	0.0533188
724.213	0.0541652
724.347	0.0553742
724.482	0.0564623
724.617	0.0535606
724.752	0.0534397
724.886	0.0533188
725.021	0.0557369
725.156	0.0540443
725.291	0.0546488
725.425	0.0539233
725.56	0.0547697
725.695	0.0545279
725.829	0.0538024
725.964	0.0533188
726.099	0.055616
726.234	0.0551324
726.368	0.0542861
726.503	0.0546488
726.638	0.0548906
726.773	0.0547697
726.907	0.0531979
727.042	0.0535606
727.177	0.0541652
727.312	0.0548906
727.446	0.0550115
727.581	0.054407
727.716	0.0531979
727.851	0.0545279
727.985	0.0548906
728.12	0.0536815
728.255	0.0551324
728.389	0.0542861
728.524	0.0553742
728.659	0.0540443
728.794	0.0551324
728.928	0.0551324
729.063	0.0538024
729.198	0.0548906
729.333	0.0533188
729.467	0.0540443
729.602	0.0547697
729.737	0.0545279
729.872	0.0547697
730.006	0.0539233
730.141	0.0542861
730.276	0.0546488
730.41	0.0541652
730.545	0.0546488
730.68	0.0541652
730.815	0.054407
730.949	0.0547697
731.084	0.0536815
731.219	0.0559787
731.354	0.0553742
731.488	0.0546488
731.623	0.0558578
731.758	0.0564623
731.892	0.0542861
732.027	0.0541652
732.162	0.0539233
732.297	0.0541652
732.431	0.0545279
732.566	0.054407
732.701	0.0541652
732.835	0.0547697
732.97	0.053077
733.105	0.0545279
733.24	0.0542861
733.374	0.0554951
733.509	0.0540443
733.644	0.0552533
733.779	0.0547697
733.913	0.0546488
734.048	0.0550115
734.183	0.0547697
734.317	0.0534397
734.452	0.0545279
734.587	0.0554951
734.722	0.0538024
734.856	0.0536815
734.991	0.0551324
735.126	0.0545279
735.26	0.0534397
735.395	0.054407
735.53	0.0546488
735.665	0.0564623
735.799	0.0553742
735.934	0.0558578
736.069	0.0541652
736.203	0.054407
736.338	0.0559787
736.473	0.0551324
736.607	0.0547697
736.742	0.0548906
736.877	0.054407
737.012	0.054407
737.146	0.0536815
737.281	0.0550115
737.416	0.055616
737.55	0.0553742
737.685	0.0533188
737.82	0.0539233
737.955	0.0545279
738.089	0.0546488
738.224	0.0540443
738.359	0.0545279
738.493	0.0542861
738.628	0.0545279
738.763	0.0550115
738.897	0.0548906
739.032	0.0562205
739.167	0.0538024
739.302	0.0540443
739.436	0.0524725
739.571	0.0531979
739.706	0.0534397
739.84	0.0541652
739.975	0.0563414
740.11	0.0535606
740.244	0.0525934
740.379	0.0542861
740.514	0.0550115
740.649	0.0548906
740.783	0.0525934
740.918	0.0552533
741.053	0.0542861
741.187	0.0541652
741.322	0.0538024
741.457	0.0558578
741.591	0.0547697
741.726	0.0563414
741.861	0.054407
741.996	0.0545279
742.13	0.0557369
742.265	0.0547697
742.4	0.0541652
742.534	0.0539233
742.669	0.0554951
742.804	0.0541652
742.938	0.0541652
743.073	0.0538024
743.208	0.0548906
743.342	0.0559787
743.477	0.0536815
743.612	0.0545279
743.747	0.0547697
743.881	0.0553742
744.016	0.0560996
744.151	0.0552533
744.285	0.0552533
744.42	0.0564623
744.555	0.0542861
744.689	0.055616
744.824	0.0550115
744.959	0.0546488
745.093	0.0538024
745.228	0.0539233
745.363	0.0541652
745.497	0.0551324
745.632	0.0558578
745.767	0.0559787
745.901	0.0554951
746.036	0.0534397
746.171	0.0548906
746.305	0.0557369
746.44	0.0535606
746.575	0.0538024
746.71	0.0545279
746.844	0.0545279
746.979	0.0539233
747.114	0.0539233
747.248	0.0545279
747.383	0.0540443
747.518	0.0529561
747.652	0.0547697
747.787	0.055616
747.922	0.0563414
748.056	0.0550115
748.191	0.0541652
748.326	0.0547697
748.46	0.0546488
748.595	0.0545279
748.73	0.0553742
748.864	0.0551324
748.999	0.0551324
749.134	0.0541652
749.268	0.0554951
749.403	0.0539233
749.538	0.0552533
749.672	0.0539233
749.807	0.055616
749.942	0.0533188
750.076	0.0546488
750.211	0.0539233
750.346	0.0536815
750.48	0.0542861
750.615	0.0557369
750.75	0.0553742
750.884	0.0558578
751.019	0.0533188
751.154	0.0557369
751.288	0.0531979
751.423	0.0534397
751.558	0.0548906
751.692	0.0529561
751.827	0.0536815
751.962	0.053077
752.096	0.053077
752.231	0.056946
752.366	0.053077
752.5	0.0540443
752.635	0.0541652
752.77	0.0550115
752.904	0.0550115
753.039	0.0535606
753.174	0.0551324
753.308	0.0541652
753.443	0.053077
753.578	0.0547697
753.712	0.054407
753.847	0.0552533
753.982	0.0538024
754.116	0.0546488
754.251	0.0535606
754.386	0.0557369
754.52	0.0546488
754.655	0.0540443
754.79	0.0551324
754.924	0.054407
755.059	0.0522307
755.194	0.0541652
755.328	0.0550115
755.463	0.0529561
755.597	0.0564623
755.732	0.0557369
755.867	0.0542861
756.001	0.0535606
756.136	0.0531979
756.271	0.0550115
756.405	0.0535606
756.54	0.0559787
756.675	0.0553742
756.809	0.0546488
756.944	0.0542861
757.079	0.0551324
757.213	0.0541652
757.348	0.054407
757.483	0.0538024
757.617	0.0563414
757.752	0.0550115
757.887	0.0534397
758.021	0.0540443
758.156	0.0563414
758.29	0.0539233
758.425	0.0559787
758.56	0.0546488
758.694	0.0554951
758.829	0.0548906
758.964	0.0557369
759.098	0.0553742
759.233	0.0545279
759.368	0.0538024
759.502	0.0539233
759.637	0.0551324
759.772	0.0558578
759.906	0.0557369
760.041	0.0562205
760.175	0.0558578
