Source: Spectrum Viewer

Chart: Pulse Spectrum

Series: 
Wavelength (nm)	S (a.u.)
617.638	0.0851974
617.773	0.086559
617.908	0.0923945
618.043	0.0898658
618.178	0.0877261
618.313	0.0867535
618.448	0.0886987
618.583	0.0904493
618.718	0.08617
618.853	0.0879206
618.988	0.0894768
619.123	0.0869481
619.258	0.0892822
619.394	0.0888932
619.529	0.0896713
619.664	0.0890877
619.799	0.0873371
619.934	0.0892822
620.069	0.0912274
620.204	0.0912274
620.339	0.0892822
620.474	0.0894768
620.609	0.0886987
620.744	0.0869481
620.879	0.0892822
621.014	0.0896713
621.149	0.0855865
621.284	0.0863645
621.419	0.0888932
621.554	0.086559
621.689	0.0875316
621.825	0.0898658
621.96	0.0892822
622.095	0.0879206
622.23	0.0900603
622.365	0.0850029
622.5	0.0888932
622.635	0.0875316
622.77	0.0890877
622.905	0.0888932
623.04	0.0873371
623.175	0.0892822
623.31	0.0875316
623.445	0.0879206
623.58	0.0896713
623.715	0.0881152
623.85	0.085781
623.985	0.0906438
624.12	0.0873371
624.255	0.0908384
624.39	0.0883097
624.525	0.0902548
624.661	0.0898658
624.796	0.0920054
624.931	0.0894768
625.066	0.0892822
625.201	0.0877261
625.336	0.0898658
625.471	0.0863645
625.606	0.0877261
625.741	0.0923945
625.876	0.0890877
626.011	0.0892822
626.146	0.0877261
626.281	0.0879206
626.416	0.0869481
626.551	0.0914219
626.686	0.0869481
626.821	0.0894768
626.956	0.0871426
627.091	0.0877261
627.226	0.0888932
627.361	0.0890877
627.496	0.0873371
627.631	0.0883097
627.766	0.0886987
627.901	0.0896713
628.036	0.0877261
628.171	0.085781
628.307	0.0920054
628.442	0.092589
628.577	0.0892822
628.712	0.0894768
628.847	0.0888932
628.982	0.0873371
629.117	0.0875316
629.252	0.0869481
629.387	0.0867535
629.522	0.0904493
629.657	0.0859755
629.792	0.0879206
629.927	0.0890877
630.062	0.0871426
630.197	0.0877261
630.332	0.0863645
630.467	0.0859755
630.602	0.0900603
630.737	0.0867535
630.872	0.0879206
631.007	0.0863645
631.142	0.0900603
631.277	0.0871426
631.412	0.0853919
631.547	0.0890877
631.682	0.0875316
631.817	0.0881152
631.952	0.0879206
632.087	0.0904493
632.222	0.0904493
632.357	0.0873371
632.492	0.0877261
632.627	0.0875316
632.762	0.086559
632.897	0.0900603
633.032	0.0894768
633.167	0.0908384
633.302	0.0877261
633.437	0.0877261
633.572	0.0853919
633.707	0.0886987
633.842	0.0855865
633.978	0.0863645
634.113	0.0881152
634.248	0.0850029
634.383	0.0873371
634.518	0.0875316
634.653	0.0888932
634.788	0.0867535
634.923	0.0881152
635.058	0.0883097
635.193	0.0877261
635.328	0.0885042
635.463	0.0877261
635.598	0.0851974
635.733	0.0881152
635.868	0.0902548
636.003	0.0890877
636.138	0.0890877
636.273	0.0877261
636.408	0.0867535
636.543	0.0881152
636.678	0.0902548
636.813	0.0914219
636.948	0.0888932
637.083	0.0886987
637.218	0.0890877
637.353	0.0875316
637.488	0.0908384
637.623	0.0883097
637.758	0.0896713
637.893	0.0888932
638.028	0.085781
638.163	0.0898658
638.298	0.0890877
638.433	0.0898658
638.568	0.0881152
638.703	0.0914219
638.838	0.0867535
638.973	0.08617
639.108	0.0883097
639.243	0.0859755
639.378	0.0902548
639.513	0.0877261
639.648	0.0881152
639.783	0.0871426
639.918	0.0869481
640.053	0.0877261
640.188	0.0877261
640.323	0.0906438
640.458	0.0853919
640.593	0.0885042
640.728	0.0851974
640.863	0.0906438
640.998	0.0885042
641.133	0.0879206
641.268	0.0844194
641.403	0.0885042
641.538	0.0886987
641.673	0.0886987
641.808	0.0879206
641.943	0.0877261
642.078	0.0888932
642.213	0.0881152
642.348	0.0892822
642.483	0.0883097
642.618	0.0879206
642.753	0.0914219
642.888	0.08617
643.023	0.0894768
643.158	0.0885042
643.293	0.0898658
643.428	0.0863645
643.563	0.0898658
643.698	0.0877261
643.833	0.0898658
643.968	0.08617
644.103	0.0904493
644.237	0.0894768
644.372	0.0883097
644.507	0.0879206
644.642	0.0898658
644.777	0.0892822
644.912	0.0885042
645.047	0.0886987
645.182	0.0877261
645.317	0.0896713
645.452	0.0875316
645.587	0.0853919
645.722	0.0906438
645.857	0.0900603
645.992	0.0853919
646.127	0.0892822
646.262	0.0885042
646.397	0.0885042
646.532	0.0888932
646.667	0.0853919
646.802	0.0920054
646.937	0.0883097
647.072	0.0883097
647.207	0.0906438
647.342	0.0873371
647.477	0.0908384
647.612	0.086559
647.747	0.0900603
647.882	0.0881152
648.017	0.0890877
648.152	0.0877261
648.287	0.0879206
648.422	0.0908384
648.557	0.0883097
648.692	0.0892822
648.827	0.0898658
648.962	0.0902548
649.097	0.0935616
649.232	0.0888932
649.367	0.0855865
649.502	0.0875316
649.637	0.0890877
649.772	0.0906438
649.906	0.0910329
650.041	0.0906438
650.176	0.0863645
650.311	0.08617
650.446	0.0885042
650.581	0.0894768
650.716	0.0879206
650.851	0.0890877
650.986	0.0877261
651.121	0.0883097
651.256	0.0886987
651.391	0.0879206
651.526	0.0855865
651.661	0.0873371
651.796	0.0892822
651.931	0.0896713
652.066	0.0881152
652.201	0.0898658
652.336	0.0877261
652.471	0.0879206
652.606	0.0877261
652.741	0.0890877
652.876	0.0875316
653.011	0.0892822
653.146	0.0896713
653.281	0.0886987
653.415	0.0914219
653.55	0.0853919
653.685	0.0888932
653.82	0.0881152
653.955	0.0906438
654.09	0.0894768
654.225	0.0879206
654.36	0.085781
654.495	0.0879206
654.63	0.0916164
654.765	0.0877261
654.9	0.0892822
655.035	0.0894768
655.17	0.085781
655.305	0.0888932
655.44	0.0883097
655.575	0.0863645
655.71	0.085781
655.845	0.0877261
655.98	0.0877261
656.115	0.0877261
656.25	0.0879206
656.384	0.0871426
656.519	0.0888932
656.654	0.0875316
656.789	0.0890877
656.924	0.0863645
657.059	0.0883097
657.194	0.0859755
657.329	0.0879206
657.464	0.0894768
657.599	0.0883097
657.734	0.08617
657.869	0.0888932
658.004	0.0894768
658.139	0.0888932
658.274	0.085781
658.409	0.0890877
658.544	0.0892822
658.679	0.0890877
658.813	0.0879206
658.948	0.0900603
659.083	0.0877261
659.218	0.085781
659.353	0.0867535
659.488	0.0920054
659.623	0.0886987
659.758	0.0871426
659.893	0.0908384
660.028	0.0871426
660.163	0.0875316
660.298	0.0871426
660.433	0.0894768
660.568	0.0888932
660.703	0.0869481
660.838	0.0879206
660.972	0.0881152
661.107	0.0881152
661.242	0.086559
661.377	0.0886987
661.512	0.0883097
661.647	0.0851974
661.782	0.0906438
661.917	0.0875316
662.052	0.0873371
662.187	0.0914219
662.322	0.0886987
662.457	0.0867535
662.592	0.0896713
662.727	0.0879206
662.862	0.0883097
662.996	0.0850029
663.131	0.0877261
663.266	0.0877261
663.401	0.0885042
663.536	0.0894768
663.671	0.0900603
663.806	0.0877261
663.941	0.0881152
664.076	0.0877261
664.211	0.0892822
664.346	0.0898658
664.481	0.0873371
664.616	0.0844194
664.75	0.0902548
664.885	0.0892822
665.02	0.0885042
665.155	0.0879206
665.29	0.0883097
665.425	0.0846139
665.56	0.0881152
665.695	0.0890877
665.83	0.0877261
665.965	0.0885042
666.1	0.0879206
666.235	0.0881152
666.37	0.0892822
666.504	0.0910329
666.639	0.0898658
666.774	0.0871426
666.909	0.0881152
667.044	0.0873371
667.179	0.0904493
667.314	0.0869481
667.449	0.085781
667.584	0.0867535
667.719	0.0879206
667.854	0.0886987
667.989	0.0885042
668.123	0.0894768
668.258	0.0873371
668.393	0.0867535
668.528	0.0869481
668.663	0.0873371
668.798	0.0873371
668.933	0.0894768
669.068	0.0879206
669.203	0.0871426
669.338	0.0873371
669.473	0.0885042
669.607	0.0869481
669.742	0.0877261
669.877	0.0885042
670.012	0.0885042
670.147	0.0890877
670.282	0.0894768
670.417	0.0875316
670.552	0.0873371
670.687	0.0900603
670.822	0.0908384
670.957	0.0898658
671.091	0.0892822
671.226	0.0877261
671.361	0.0875316
671.496	0.0863645
671.631	0.0894768
671.766	0.0850029
671.901	0.0888932
672.036	0.0885042
672.171	0.0894768
672.306	0.0888932
672.44	0.0885042
672.575	0.0879206
672.71	0.0883097
672.845	0.08617
672.98	0.0886987
673.115	0.0885042
673.25	0.0844194
673.385	0.0871426
673.52	0.0873371
673.655	0.0886987
673.789	0.0863645
673.924	0.0896713
674.059	0.0885042
674.194	0.0863645
674.329	0.0904493
674.464	0.0896713
674.599	0.0908384
674.734	0.0886987
674.869	0.0859755
675.003	0.0867535
675.138	0.0886987
675.273	0.0875316
675.408	0.0900603
675.543	0.0892822
675.678	0.0886987
675.813	0.0898658
675.948	0.0888932
676.083	0.0890877
676.217	0.0881152
676.352	0.0863645
676.487	0.0886987
676.622	0.0894768
676.757	0.0894768
676.892	0.0867535
677.027	0.0892822
677.162	0.0875316
677.297	0.0892822
677.431	0.0885042
677.566	0.0892822
677.701	0.0883097
677.836	0.0883097
677.971	0.0877261
678.106	0.0898658
678.241	0.086559
678.376	0.0896713
678.511	0.0910329
678.645	0.086559
678.78	0.0890877
678.915	0.0871426
679.05	0.0910329
679.185	0.0896713
679.32	0.0873371
679.455	0.0863645
679.59	0.0896713
679.724	0.0894768
679.859	0.0840303
679.994	0.0873371
680.129	0.0881152
680.264	0.0879206
680.399	0.0851974
680.534	0.0879206
680.669	0.0894768
680.803	0.0869481
680.938	0.0914219
681.073	0.0869481
681.208	0.0908384
681.343	0.0873371
681.478	0.086559
681.613	0.0900603
681.748	0.0890877
681.882	0.0881152
682.017	0.085781
682.152	0.0867535
682.287	0.0885042
682.422	0.0888932
682.557	0.0892822
682.692	0.085781
682.827	0.0894768
682.961	0.0875316
683.096	0.0900603
683.231	0.0894768
683.366	0.0869481
683.501	0.0855865
683.636	0.085781
683.771	0.0883097
683.906	0.0859755
684.04	0.0875316
684.175	0.0883097
684.31	0.0906438
684.445	0.08617
684.58	0.0910329
684.715	0.0900603
684.85	0.0859755
684.984	0.0848084
685.119	0.085781
685.254	0.0869481
685.389	0.0892822
685.524	0.0888932
685.659	0.0881152
685.794	0.0877261
685.928	0.0877261
686.063	0.0869481
686.198	0.0869481
686.333	0.0890877
686.468	0.0873371
686.603	0.0877261
686.738	0.0904493
686.872	0.0875316
687.007	0.0918109
687.142	0.0881152
687.277	0.0927835
687.412	0.0898658
687.547	0.0883097
687.682	0.0883097
687.816	0.0879206
687.951	0.0875316
688.086	0.08617
688.221	0.0875316
688.356	0.08617
688.491	0.0892822
688.626	0.0873371
688.76	0.0904493
688.895	0.0883097
689.03	0.0855865
689.165	0.0886987
689.3	0.0879206
689.435	0.0873371
689.57	0.0896713
689.704	0.0898658
689.839	0.0886987
689.974	0.0885042
690.109	0.0875316
690.244	0.0881152
690.379	0.0875316
690.513	0.0896713
690.648	0.0875316
690.783	0.0867535
690.918	0.0896713
691.053	0.0879206
691.188	0.0883097
691.323	0.086559
691.457	0.0883097
691.592	0.0879206
691.727	0.0863645
691.862	0.0879206
691.997	0.085781
692.132	0.0883097
692.266	0.0875316
692.401	0.0879206
692.536	0.0883097
692.671	0.0875316
692.806	0.0892822
692.941	0.0881152
693.075	0.0912274
693.21	0.0877261
693.345	0.0879206
693.48	0.0906438
693.615	0.0859755
693.75	0.0867535
693.885	0.0896713
694.019	0.0879206
694.154	0.0871426
694.289	0.0879206
694.424	0.0888932
694.559	0.0888932
694.694	0.0877261
694.828	0.0877261
694.963	0.0875316
695.098	0.085781
695.233	0.0888932
695.368	0.0888932
695.503	0.0890877
695.637	0.0894768
695.772	0.0904493
695.907	0.0877261
696.042	0.0904493
696.177	0.0873371
696.312	0.0881152
696.446	0.0916164
696.581	0.0873371
696.716	0.0869481
696.851	0.0871426
696.986	0.0906438
697.12	0.0896713
697.255	0.0883097
697.39	0.0883097
697.525	0.0844194
697.66	0.0867535
697.795	0.0890877
697.929	0.0894768
698.064	0.0892822
698.199	0.086559
698.334	0.0859755
698.469	0.0896713
698.604	0.0871426
698.738	0.0888932
698.873	0.0904493
699.008	0.0855865
699.143	0.0877261
699.278	0.0873371
699.412	0.0867535
699.547	0.0900603
699.682	0.0881152
699.817	0.0877261
699.952	0.0875316
700.087	0.0869481
700.221	0.0863645
700.356	0.0892822
700.491	0.0888932
700.626	0.086559
700.761	0.086559
700.895	0.08617
701.03	0.0918109
701.165	0.0881152
701.3	0.0910329
701.435	0.0883097
701.57	0.0877261
701.704	0.0904493
701.839	0.0910329
701.974	0.0890877
702.109	0.0883097
702.244	0.0890877
702.378	0.0916164
702.513	0.0844194
702.648	0.0888932
702.783	0.0892822
702.918	0.0886987
703.052	0.0850029
703.187	0.0879206
703.322	0.0871426
703.457	0.0869481
703.592	0.0885042
703.727	0.08617
703.861	0.0896713
703.996	0.0888932
704.131	0.0875316
704.266	0.0890877
704.401	0.0850029
704.535	0.0883097
704.67	0.0871426
704.805	0.08617
704.94	0.0879206
705.075	0.0869481
705.209	0.0867535
705.344	0.0886987
705.479	0.0898658
705.614	0.0875316
705.749	0.0873371
705.883	0.0869481
706.018	0.0881152
706.153	0.0877261
706.288	0.0894768
706.423	0.0892822
706.557	0.0885042
706.692	0.0885042
706.827	0.0877261
706.962	0.0894768
707.097	0.0875316
707.231	0.0875316
707.366	0.0898658
707.501	0.0906438
707.636	0.0850029
707.771	0.0883097
707.905	0.085781
708.04	0.0873371
708.175	0.0855865
708.31	0.0886987
708.445	0.0875316
708.579	0.0900603
708.714	0.0873371
708.849	0.0879206
708.984	0.0896713
709.118	0.0879206
709.253	0.0894768
709.388	0.0890877
709.523	0.0912274
709.658	0.0914219
709.792	0.0892822
709.927	0.0873371
710.062	0.0898658
710.197	0.0885042
710.332	0.0898658
710.466	0.08617
710.601	0.0892822
710.736	0.0883097
710.871	0.0906438
711.006	0.0892822
711.14	0.0883097
711.275	0.0888932
711.41	0.0879206
711.545	0.0892822
711.679	0.0875316
711.814	0.0871426
711.949	0.0888932
712.084	0.0873371
712.219	0.0875316
712.353	0.0885042
712.488	0.0881152
712.623	0.086559
712.758	0.0894768
712.892	0.0904493
713.027	0.0898658
713.162	0.0902548
713.297	0.0886987
713.432	0.0894768
713.566	0.086559
713.701	0.0896713
713.836	0.0908384
713.971	0.0869481
714.105	0.0859755
714.24	0.0867535
714.375	0.0869481
714.51	0.0892822
714.645	0.0906438
714.779	0.08617
714.914	0.0894768
715.049	0.0867535
715.184	0.0879206
715.318	0.0873371
715.453	0.0888932
715.588	0.0873371
715.723	0.0879206
715.858	0.0883097
715.992	0.0855865
716.127	0.0853919
716.262	0.0894768
716.397	0.0914219
716.531	0.0877261
716.666	0.0898658
716.801	0.0894768
716.936	0.0871426
717.07	0.0894768
717.205	0.0888932
717.34	0.0853919
717.475	0.0863645
717.61	0.086559
717.744	0.0890877
717.879	0.0879206
718.014	0.0877261
718.149	0.0904493
718.283	0.0886987
718.418	0.0883097
718.553	0.0892822
718.688	0.08617
718.822	0.0910329
718.957	0.0873371
719.092	0.0888932
719.227	0.0871426
719.361	0.0885042
719.496	0.0855865
719.631	0.0888932
719.766	0.086559
719.9	0.0908384
720.035	0.092589
720.17	0.0869481
720.305	0.0886987
720.44	0.0888932
720.574	0.0906438
720.709	0.0881152
720.844	0.08617
720.979	0.0879206
721.113	0.086559
721.248	0.0867535
721.383	0.0888932
721.518	0.086559
721.652	0.0890877
721.787	0.0883097
721.922	0.0873371
722.057	0.0877261
722.191	0.0871426
722.326	0.0892822
722.461	0.0896713
722.596	0.0850029
722.73	0.0851974
722.865	0.0879206
723	0.0894768
723.135	0.0883097
723.269	0.0873371
723.404	0.0879206
723.539	0.0890877
723.674	0.085781
723.808	0.0888932
723.943	0.0890877
724.078	0.0894768
724.213	0.0877261
724.347	0.0863645
724.482	0.0883097
724.617	0.0877261
724.752	0.0892822
724.886	0.0869481
725.021	0.0890877
725.156	0.086559
725.291	0.0867535
725.425	0.086559
725.56	0.0894768
725.695	0.0883097
725.829	0.0904493
725.964	0.0881152
726.099	0.0883097
726.234	0.0886987
726.368	0.0871426
726.503	0.0879206
726.638	0.0888932
726.773	0.0863645
726.907	0.0877261
727.042	0.0877261
727.177	0.0894768
727.312	0.0906438
727.446	0.0875316
727.581	0.0869481
727.716	0.0869481
727.851	0.0871426
727.985	0.0863645
728.12	0.0910329
728.255	0.0869481
728.389	0.0881152
728.524	0.0883097
728.659	0.0886987
728.794	0.0886987
728.928	0.0840303
729.063	0.0892822
729.198	0.0867535
729.333	0.0892822
729.467	0.0910329
729.602	0.0892822
729.737	0.0883097
729.872	0.0892822
730.006	0.0886987
730.141	0.0894768
730.276	0.0875316
730.41	0.0912274
730.545	0.0885042
730.68	0.0885042
730.815	0.0892822
730.949	0.0912274
731.084	0.08617
731.219	0.0892822
731.354	0.0859755
731.488	0.0894768
731.623	0.0894768
731.758	0.0894768
731.892	0.086559
732.027	0.0898658
732.162	0.0912274
732.297	0.0875316
732.431	0.0916164
732.566	0.0867535
732.701	0.0894768
732.835	0.0881152
732.97	0.0883097
733.105	0.0890877
733.24	0.0859755
733.374	0.0883097
733.509	0.0859755
733.644	0.0853919
733.779	0.0873371
733.913	0.0900603
734.048	0.0894768
734.183	0.0883097
734.317	0.0873371
734.452	0.0890877
734.587	0.0890877
734.722	0.0898658
734.856	0.0877261
734.991	0.0900603
735.126	0.0890877
735.26	0.0871426
735.395	0.0850029
735.53	0.0875316
735.665	0.0875316
735.799	0.0859755
735.934	0.0879206
736.069	0.0879206
736.203	0.0888932
736.338	0.0875316
736.473	0.0871426
736.607	0.0879206
736.742	0.0851974
736.877	0.0888932
737.012	0.0906438
737.146	0.0892822
737.281	0.0863645
737.416	0.0881152
737.55	0.0892822
737.685	0.08617
737.82	0.0881152
737.955	0.0875316
738.089	0.0883097
738.224	0.086559
738.359	0.0914219
738.493	0.0851974
738.628	0.0886987
738.763	0.0869481
738.897	0.0859755
739.032	0.0900603
739.167	0.0881152
739.302	0.086559
739.436	0.0883097
739.571	0.0881152
739.706	0.0890877
739.84	0.0875316
739.975	0.0906438
740.11	0.086559
740.244	0.0894768
740.379	0.0886987
740.514	0.0902548
740.649	0.0885042
740.783	0.0877261
740.918	0.0886987
741.053	0.0890877
741.187	0.0879206
741.322	0.0883097
741.457	0.0883097
741.591	0.085781
741.726	0.0869481
741.861	0.0890877
741.996	0.0910329
742.13	0.0886987
742.265	0.0877261
742.4	0.0848084
742.534	0.0892822
742.669	0.0890877
742.804	0.0869481
742.938	0.0875316
743.073	0.0906438
743.208	0.0881152
743.342	0.0877261
743.477	0.0890877
743.612	0.0900603
743.747	0.0896713
743.881	0.0877261
744.016	0.0888932
744.151	0.0916164
744.285	0.0883097
744.42	0.0881152
744.555	0.0873371
744.689	0.0886987
744.824	0.0867535
744.959	0.0898658
745.093	0.0875316
745.228	0.0914219
745.363	0.0885042
745.497	0.0900603
745.632	0.0867535
745.767	0.0885042
745.901	0.0906438
746.036	0.0877261
746.171	0.0910329
746.305	0.0873371
746.44	0.0886987
746.575	0.0879206
746.71	0.0869481
746.844	0.0883097
746.979	0.0867535
747.114	0.0881152
747.248	0.0900603
747.383	0.0883097
747.518	0.0888932
747.652	0.0883097
747.787	0.0877261
747.922	0.086559
748.056	0.0869481
748.191	0.0879206
748.326	0.0877261
748.46	0.085781
748.595	0.0920054
748.73	0.0873371
748.864	0.0873371
748.999	0.0898658
749.134	0.0896713
749.268	0.0894768
749.403	0.0894768
749.538	0.0877261
749.672	0.0896713
749.807	0.0896713
749.942	0.0890877
750.076	0.08617
750.211	0.0877261
750.346	0.0888932
750.48	0.0890877
750.615	0.0892822
750.75	0.0890877
750.884	0.0883097
751.019	0.0881152
751.154	0.0877261
751.288	0.0896713
751.423	0.0853919
751.558	0.0890877
751.692	0.0873371
751.827	0.0886987
751.962	0.0875316
752.096	0.0873371
752.231	0.0867535
752.366	0.0885042
752.5	0.0896713
752.635	0.0888932
752.77	0.0892822
752.904	0.0886987
753.039	0.0900603
753.174	0.0871426
753.308	0.0904493
753.443	0.0908384
753.578	0.0892822
753.712	0.0881152
753.847	0.0885042
753.982	0.0890877
754.116	0.0886987
754.251	0.0859755
754.386	0.0867535
754.52	0.0883097
754.655	0.08617
754.79	0.0869481
754.924	0.0906438
755.059	0.0885042
755.194	0.0888932
755.328	0.0883097
755.463	0.0877261
755.597	0.0867535
755.732	0.0898658
755.867	0.0885042
756.001	0.0894768
756.136	0.0902548
756.271	0.0902548
756.405	0.0859755
756.54	0.0883097
756.675	0.0879206
756.809	0.0877261
756.944	0.0871426
757.079	0.0888932
757.213	0.0894768
757.348	0.0873371
757.483	0.0920054
757.617	0.0910329
757.752	0.0863645
757.887	0.0879206
758.021	0.0867535
758.156	0.0918109
758.29	0.0906438
758.425	0.0875316
758.56	0.0871426
758.694	0.0877261
758.829	0.0881152
758.964	0.0873371
759.098	0.0920054
759.233	0.0888932
759.368	0.0877261
759.502	0.0908384
759.637	0.0869481
759.772	0.0877261
759.906	0.0883097
760.041	0.0871426
760.175	0.0873371
